timestamps,TP9,AF7,AF8,TP10,Right AUX
1728626167.039,-41.992,-28.320,-35.645,0.000,0.000
1728626167.043,-38.086,-43.945,-37.598,-41.992,0.000
1728626167.047,-20.020,-46.875,-32.715,-52.246,0.000
1728626167.051,-41.016,-36.621,-40.527,-43.945,0.000
1728626167.055,-45.898,-34.180,-43.457,-15.625,0.000
1728626167.059,-37.109,-28.320,-41.504,0.000,0.000
1728626167.063,-37.109,-31.738,-42.480,-21.484,0.000
1728626167.066,-26.855,-33.691,-35.156,-51.270,0.000
1728626167.070,-39.062,-34.180,-30.273,-50.781,0.000
1728626167.074,-42.480,-37.598,-28.809,-10.742,0.000
1728626167.078,-43.457,-32.227,-30.762,-5.371,0.000
1728626167.082,-47.363,-33.691,-35.645,-44.922,0.000
1728626167.086,-21.484,-36.621,-31.738,-56.641,0.000
1728626167.090,-22.949,-30.273,-20.996,-37.109,0.000
1728626167.093,-34.180,-21.973,-13.672,4.883,0.000
1728626167.097,-31.738,-31.738,-25.879,-0.488,0.000
1728626167.101,-41.992,-39.551,-43.945,-52.246,0.000
1728626167.105,-33.691,-35.645,-37.598,-57.129,0.000
1728626167.109,-36.621,-37.109,-33.203,-49.316,0.000
1728626167.113,-50.293,-35.156,-34.180,-36.133,0.000
1728626167.117,-30.273,-34.668,-39.062,-21.973,0.000
1728626167.121,-27.832,-41.504,-40.039,-40.039,0.000
1728626167.125,-25.879,-44.922,-26.855,-57.129,0.000
1728626167.129,-21.973,-35.645,-21.484,-53.223,0.000
1728626167.134,0.000,-34.668,-27.344,-29.785,0.000
1728626167.138,0.000,-42.969,-29.785,-6.348,0.000
1728626167.142,0.000,-39.551,-23.926,-25.879,0.000
1728626167.145,0.000,-25.879,-21.484,-54.199,0.000
1728626167.149,0.000,-30.762,-31.738,-55.176,0.000
1728626167.153,0.000,-50.293,-32.715,-33.203,0.000
1728626167.157,0.000,-45.898,-29.297,-10.742,0.000
1728626167.161,0.000,-33.691,-39.551,-31.250,0.000
1728626167.165,0.000,-27.832,-41.504,-52.246,0.000
1728626167.169,0.000,-32.715,-35.156,-54.199,0.000
1728626167.173,0.000,-32.715,-26.855,-44.922,0.000
1728626167.177,0.000,-31.250,-24.902,-18.555,0.000
1728626167.181,-41.016,-28.809,-31.250,-21.973,0.000
1728626167.185,-32.715,-29.785,-25.879,-43.457,0.000
1728626167.189,-29.297,-32.715,-20.996,-45.410,0.000
1728626167.193,-50.781,-32.227,-28.809,-35.645,0.000
1728626167.196,-51.758,-33.203,-30.273,0.488,0.000
1728626167.200,-40.039,-26.855,-26.855,-4.395,0.000
1728626167.204,-34.180,-21.484,-28.320,-46.387,0.000
1728626167.208,-21.973,-23.438,-31.738,-52.734,0.000
1728626167.212,-42.969,-27.832,-33.203,-49.805,0.000
1728626167.216,-31.738,-31.738,-21.484,-17.090,0.000
1728626167.220,-21.973,-19.531,-14.648,-4.395,0.000
1728626167.224,-49.805,-25.391,-27.344,-46.875,0.000
1728626167.228,-35.156,-47.363,-38.086,-63.965,0.000
1728626167.232,-35.156,-45.898,-31.738,-62.988,0.000
1728626167.236,-47.363,-35.645,-25.879,-37.109,0.000
1728626167.239,-39.551,-29.785,-29.297,-25.391,0.000
1728626167.243,-37.109,-23.926,-32.227,-61.523,0.000
1728626167.247,-15.625,-23.926,-38.086,-68.359,0.000
1728626167.251,-30.762,-25.391,-31.738,-55.176,0.000
1728626167.255,-51.270,-17.578,-20.996,-41.992,0.000
1728626167.259,-40.527,-31.738,-24.414,-34.668,0.000
1728626167.263,-47.363,-41.016,-33.203,-68.359,0.000
1728626167.267,-38.574,-30.273,-32.715,-81.055,0.000
1728626167.271,-39.551,-31.250,-30.273,-57.129,0.000
1728626167.275,-65.430,-41.504,-31.738,-31.738,0.000
1728626167.278,-65.918,-38.574,-32.227,-12.695,0.000
1728626167.282,-63.477,-35.645,-35.645,-32.715,0.000
1728626167.286,-52.734,-36.133,-39.551,-63.477,0.000
1728626167.290,-43.945,-43.457,-43.457,-67.383,0.000
1728626167.294,-53.223,-45.898,-36.621,-32.227,0.000
1728626167.298,-48.828,-37.109,-28.809,5.371,0.000
1728626167.302,-55.664,-45.410,-32.715,-20.996,0.000
1728626167.306,-40.527,-34.668,-33.691,-55.664,0.000
1728626167.310,-37.598,-18.555,-30.762,-52.246,0.000
1728626167.314,-45.410,-21.973,-26.367,-23.438,0.000
1728626167.317,-21.973,-19.531,-24.414,4.883,0.000
1728626167.321,-24.414,-32.227,-41.016,-25.391,0.000
1728626167.325,-21.973,-40.527,-41.504,-59.082,0.000
1728626167.329,-29.297,-42.480,-31.250,-56.641,0.000
1728626167.333,-55.176,-48.340,-37.598,-47.363,0.000
1728626167.337,-39.062,-30.762,-29.785,-9.766,0.000
1728626167.341,-35.156,-23.438,-19.531,-8.301,0.000
1728626167.345,-35.645,-32.715,-28.320,-43.457,0.000
1728626167.349,-20.508,-37.109,-30.762,-46.387,0.000
1728626167.353,-35.156,-31.250,-20.020,-41.016,0.000
1728626167.356,-33.691,-26.855,-15.625,-9.766,0.000
1728626167.360,-20.996,-33.691,-21.484,7.812,0.000
1728626167.364,-33.691,-39.062,-30.762,-49.805,0.000
1728626167.368,-31.738,-40.527,-28.320,-73.730,0.000
1728626167.372,-42.480,-36.621,-20.996,-49.316,0.000
1728626167.376,-48.828,-25.879,-29.297,-21.484,0.000
1728626167.380,-34.668,-20.996,-35.645,-7.812,0.000
1728626167.384,-31.250,-21.973,-35.156,-42.480,0.000
1728626167.387,-16.113,-20.020,-29.297,-59.570,0.000
1728626167.391,-27.344,-20.996,-33.691,-41.016,0.000
1728626167.395,-34.668,-29.785,-35.645,-8.789,0.000
1728626167.399,-41.504,-31.738,-30.273,-15.137,0.000
1728626167.403,-43.945,-29.785,-37.598,-46.875,0.000
1728626167.407,-12.695,-18.066,-43.945,-45.898,0.000
1728626167.411,-24.414,-21.484,-46.875,-51.758,0.000
1728626167.414,-43.945,-21.973,-32.227,-31.738,0.000
1728626167.418,-32.227,-22.461,-30.762,-11.230,0.000
1728626167.422,-40.527,-40.039,-42.480,-39.062,0.000
1728626167.426,-28.320,-44.922,-39.062,-58.594,0.000
1728626167.430,-19.531,-36.133,-32.227,-63.477,0.000
1728626167.434,-33.203,-24.902,-28.809,-35.156,0.000
1728626167.438,-31.250,-27.832,-26.367,2.441,0.000
1728626167.442,-34.668,-20.020,-29.297,-21.973,0.000
1728626167.446,-23.438,-21.484,-31.738,-59.570,0.000
1728626167.450,-22.949,-29.297,-38.086,-63.477,0.000
1728626167.454,-49.316,-30.273,-37.598,-43.945,0.000
1728626167.457,-45.898,-34.668,-32.227,-18.555,0.000
1728626167.461,-34.668,-32.227,-40.039,-35.156,0.000
1728626167.465,-24.902,-29.297,-42.969,-59.570,0.000
1728626167.469,-11.719,-24.902,-37.598,-54.688,0.000
1728626167.473,-22.949,-24.902,-38.574,-43.945,0.000
1728626167.477,-18.555,-21.973,-39.551,-26.855,0.000
1728626167.480,-20.508,-21.973,-41.504,-28.809,0.000
1728626167.484,-21.484,-23.926,-41.016,-47.363,0.000
1728626167.488,-20.020,-18.555,-33.203,-60.547,0.000
1728626167.492,-41.504,-20.508,-32.227,-46.387,0.000
1728626167.496,-39.062,-27.832,-34.180,-12.695,0.000
1728626167.500,-29.297,-22.461,-32.715,-20.996,0.000
1728626167.504,-25.879,-24.414,-39.062,-48.828,0.000
1728626167.508,-15.137,-30.762,-35.156,-55.176,0.000
1728626167.512,-24.902,-27.344,-23.926,-41.504,0.000
1728626167.516,-31.738,-19.043,-26.855,-5.371,0.000
1728626167.520,-36.621,-20.020,-34.668,-13.672,0.000
1728626167.524,-35.156,-30.762,-34.668,-60.547,0.000
1728626167.528,-18.066,-38.086,-40.527,-65.430,0.000
1728626167.532,-35.156,-34.180,-38.574,-52.246,0.000
1728626167.536,-47.363,-27.832,-33.691,-33.691,0.000
1728626167.539,-40.039,-34.668,-34.180,-22.461,0.000
1728626167.543,-34.668,-41.992,-35.645,-47.363,0.000
1728626167.547,-31.250,-28.320,-34.180,-67.383,0.000
1728626167.551,-27.832,-18.555,-22.949,-51.270,0.000
1728626167.555,-30.762,-24.902,-22.949,-19.531,0.000
1728626167.559,-37.598,-30.273,-21.484,-17.090,0.000
1728626167.563,-40.527,-25.391,-20.020,-54.688,0.000
1728626167.567,-28.320,-17.090,-27.344,-62.500,0.000
1728626167.571,-31.250,-20.020,-25.391,-44.434,0.000
1728626167.575,-37.598,-23.926,-16.113,-4.395,0.000
1728626167.579,-35.645,-30.273,-22.949,11.230,0.000
1728626167.583,-49.805,-25.391,-34.180,-37.598,0.000
1728626167.586,-26.855,-17.578,-36.621,-54.688,0.000
1728626167.590,-13.672,-16.602,-37.598,-42.480,0.000
1728626167.594,-45.898,-21.484,-35.645,-26.367,0.000
1728626167.598,-41.504,-25.879,-34.668,-9.766,0.000
1728626167.602,0.000,-31.738,-30.762,-22.461,0.000
1728626167.606,0.000,-33.691,-26.367,-37.598,0.000
1728626167.610,0.000,-31.250,-28.809,-51.270,0.000
1728626167.614,0.000,-38.086,-28.320,-37.109,0.000
1728626167.618,0.000,-36.621,-32.227,-7.812,0.000
1728626167.622,0.000,-25.391,-30.273,-17.578,0.000
1728626167.626,0.000,-29.297,-21.484,-41.504,0.000
1728626167.630,0.000,-29.785,-28.809,-55.176,0.000
1728626167.633,0.000,-35.156,-43.457,-38.574,0.000
1728626167.637,0.000,-38.574,-40.527,-7.812,0.000
1728626167.641,0.000,-38.574,-31.738,-31.250,0.000
1728626167.645,0.000,-41.016,-34.668,-62.012,0.000
1728626167.647,-39.551,-32.227,-39.551,-58.594,0.000
1728626167.651,-27.344,-28.809,-30.762,-38.086,0.000
1728626167.655,-31.250,-23.438,-23.438,-9.277,0.000
1728626167.658,-59.082,-34.668,-34.180,-21.973,0.000
1728626167.662,-35.645,-47.363,-36.133,-61.035,0.000
1728626167.666,-17.578,-40.527,-30.273,-58.594,0.000
1728626167.670,-15.137,-31.738,-31.250,-35.645,0.000
1728626167.674,-18.066,-28.809,-24.414,-11.719,0.000
1728626167.678,-40.039,-29.785,-20.020,-8.301,0.000
1728626167.682,-38.086,-33.203,-31.738,-42.969,0.000
1728626167.686,-30.273,-40.527,-40.039,-59.570,0.000
1728626167.690,-21.973,-39.551,-35.645,-36.133,0.000
1728626167.694,-41.016,-31.250,-32.227,-7.812,0.000
1728626167.698,-50.293,-29.785,-34.180,-22.461,0.000
1728626167.701,-60.547,-36.133,-35.645,-60.547,0.000
1728626167.705,-31.250,-32.715,-32.715,-71.289,0.000
1728626167.709,-33.691,-26.367,-32.715,-63.477,0.000
1728626167.713,-43.945,-24.902,-32.715,-27.344,0.000
1728626167.717,-35.645,-26.367,-38.574,-12.207,0.000
1728626167.721,-45.410,-34.668,-49.805,-42.969,0.000
1728626167.725,-39.062,-33.691,-49.316,-62.500,0.000
1728626167.729,-38.574,-22.461,-41.992,-48.340,0.000
1728626167.733,-45.898,-21.973,-29.297,-12.207,0.000
1728626167.737,-34.668,-31.250,-25.879,1.465,0.000
1728626167.740,-36.133,-31.738,-31.738,-25.391,0.000
1728626167.744,-27.832,-27.832,-34.668,-41.992,0.000
1728626167.748,-35.645,-29.297,-39.551,-44.434,0.000
1728626167.752,-41.504,-31.738,-37.109,-18.555,0.000
1728626167.756,-18.066,-28.809,-28.809,15.625,0.000
1728626167.760,-29.785,-36.621,-29.297,-18.066,0.000
1728626167.764,-29.785,-36.621,-25.391,-43.457,0.000
1728626167.768,-24.902,-31.738,-24.902,-29.785,0.000
1728626167.772,-53.223,-34.668,-30.762,-21.973,0.000
1728626167.776,-52.246,-28.809,-24.902,0.977,0.000
1728626167.779,-41.016,-22.949,-25.879,-10.254,0.000
1728626167.783,-28.809,-22.949,-31.738,-38.574,0.000
1728626167.787,-27.344,-19.043,-25.879,-27.832,0.000
1728626167.791,-40.527,-22.461,-21.484,-15.137,0.000
1728626167.795,-34.180,-31.738,-24.902,-4.395,0.000
1728626167.799,-26.367,-23.926,-22.949,-17.090,0.000
1728626167.803,-22.461,-19.531,-28.320,-46.387,0.000
1728626167.807,-31.738,-36.133,-32.227,-60.547,0.000
1728626167.810,-51.758,-47.363,-22.949,-35.645,0.000
1728626167.814,-47.852,-30.762,-21.484,-6.348,0.000
1728626167.818,-47.852,-15.137,-30.273,-26.855,0.000
1728626167.822,-34.180,-14.648,-28.809,-49.316,0.000
1728626167.826,-18.555,-11.230,-27.344,-53.711,0.000
1728626167.830,-44.922,-12.695,-34.668,-45.898,0.000
1728626167.834,-46.387,-19.043,-32.715,-24.902,0.000
1728626167.837,-24.902,-23.438,-31.250,-23.926,0.000
1728626167.841,-29.297,-25.391,-29.785,-42.969,0.000
1728626167.845,-36.133,-27.344,-20.508,-59.082,0.000
1728626167.849,-46.387,-29.297,-20.996,-68.848,0.000
1728626167.853,-35.645,-23.438,-22.949,-28.320,0.000
1728626167.857,-28.809,-18.555,-22.461,-6.348,0.000
1728626167.861,-31.738,-20.996,-22.949,-44.434,0.000
1728626167.865,-16.113,-16.602,-27.832,-61.035,0.000
1728626167.869,-36.133,-17.090,-40.527,-55.176,0.000
1728626167.873,-47.363,-26.855,-44.434,-31.738,0.000
1728626167.877,-41.992,-23.926,-49.805,-23.438,0.000
1728626167.881,-29.297,-27.832,-49.316,-48.828,0.000
1728626167.885,-11.719,-39.551,-42.480,-58.105,0.000
1728626167.889,-33.203,-32.227,-37.598,-45.898,0.000
1728626167.893,-53.711,-29.785,-36.621,-26.367,0.000
1728626167.897,-42.480,-36.133,-38.086,-22.949,0.000
1728626167.901,-38.574,-44.922,-37.598,-55.664,0.000
1728626167.904,-27.832,-37.598,-32.227,-74.707,0.000
1728626167.908,-32.715,-32.715,-30.762,-60.059,0.000
1728626167.912,-37.598,-33.203,-24.414,-23.438,0.000
1728626167.916,-22.461,-29.297,-21.484,11.719,0.000
1728626167.920,-27.344,-23.438,-25.391,-22.949,0.000
1728626167.924,-18.555,-24.902,-32.227,-53.711,0.000
1728626167.928,-29.297,-36.621,-36.621,-45.898,0.000
1728626167.932,-51.270,-41.992,-28.809,-29.785,0.000
1728626167.936,-43.457,-37.598,-20.508,-3.906,0.000
1728626167.940,-47.852,-44.922,-27.344,-22.461,0.000
1728626167.944,-35.156,-47.852,-40.039,-45.898,0.000
1728626167.948,-26.855,-41.504,-43.945,-53.223,0.000
1728626167.952,-42.969,-28.320,-41.016,-44.922,0.000
1728626167.956,-28.320,-14.648,-25.391,2.441,0.000
1728626167.959,-19.531,-18.066,-15.137,-3.418,0.000
1728626167.963,-20.020,-25.391,-22.949,-47.852,0.000
1728626167.967,-17.578,-20.020,-29.297,-54.688,0.000
1728626167.971,-33.691,-17.090,-36.621,-31.738,0.000
1728626167.975,0.000,-16.113,-24.902,8.789,0.000
1728626167.979,0.000,-18.555,-16.602,-6.348,0.000
1728626167.983,0.000,-25.879,-33.203,-60.059,0.000
1728626167.987,0.000,-34.668,-43.945,-70.801,0.000
1728626167.991,0.000,-36.133,-40.039,-52.734,0.000
1728626167.995,0.000,-24.902,-32.227,-17.578,0.000
1728626167.999,0.000,-32.227,-37.598,-24.414,0.000
1728626168.003,0.000,-42.480,-46.875,-72.266,0.000
1728626168.007,0.000,-42.480,-41.016,-73.242,0.000
1728626168.010,0.000,-40.039,-34.668,-55.176,0.000
1728626168.014,0.000,-35.645,-38.086,-32.715,0.000
1728626168.018,0.000,-32.227,-32.227,-11.719,0.000
1728626168.020,-25.391,-25.879,-23.438,-42.480,0.000
1728626168.024,-24.414,-33.203,-23.926,-64.453,0.000
1728626168.028,-29.297,-47.363,-26.855,-59.082,0.000
1728626168.032,-21.973,-41.992,-28.320,-37.598,0.000
1728626168.036,-31.250,-36.621,-27.344,-19.531,0.000
1728626168.039,-27.832,-38.574,-26.855,-48.340,0.000
1728626168.043,-35.156,-28.809,-28.320,-68.359,0.000
1728626168.047,-37.109,-27.832,-30.273,-56.641,0.000
1728626168.051,-27.344,-42.480,-27.832,-22.461,0.000
1728626168.055,-47.852,-32.227,-18.066,1.465,0.000
1728626168.059,-53.223,-37.109,-21.973,-29.297,0.000
1728626168.063,-40.039,-48.340,-31.738,-50.293,0.000
1728626168.065,-37.109,-34.180,-37.598,-48.340,0.000
1728626168.068,-26.367,-32.715,-36.133,-24.414,0.000
1728626168.072,-41.992,-31.250,-29.785,-0.977,0.000
1728626168.076,-41.992,-24.414,-31.250,-24.902,0.000
1728626168.080,-33.691,-28.809,-24.414,-39.551,0.000
1728626168.084,-42.480,-37.109,-28.809,-53.223,0.000
1728626168.088,-24.414,-39.062,-32.227,-45.898,0.000
1728626168.092,-31.738,-38.574,-25.391,-8.301,0.000
1728626168.096,-55.176,-33.691,-27.344,-24.902,0.000
1728626168.100,-48.828,-34.668,-31.250,-57.617,0.000
1728626168.104,-49.316,-41.016,-30.273,-62.988,0.000
1728626168.108,-32.227,-38.574,-33.203,-46.875,0.000
1728626168.112,-38.574,-34.668,-36.133,-17.090,0.000
1728626168.115,-39.551,-34.180,-38.574,-27.832,0.000
1728626168.119,-20.508,-26.367,-31.738,-50.293,0.000
1728626168.123,-20.508,-24.414,-29.785,-53.711,0.000
1728626168.127,-55.664,-29.297,-39.062,-44.922,0.000
1728626168.131,-41.504,-29.785,-39.062,-11.719,0.000
1728626168.135,-32.227,-32.715,-32.227,-17.578,0.000
1728626168.139,-27.344,-30.273,-35.156,-32.715,0.000
1728626168.143,-20.508,-30.762,-37.598,-44.434,0.000
1728626168.147,-38.086,-34.180,-29.785,-49.805,0.000
1728626168.151,-39.062,-37.598,-22.949,-8.301,0.000
1728626168.155,-35.645,-38.086,-32.227,-9.277,0.000
1728626168.158,-36.133,-34.180,-41.992,-49.805,0.000
1728626168.162,-30.273,-32.715,-33.203,-52.246,0.000
1728626168.166,-46.387,-35.156,-26.855,-43.457,0.000
1728626168.170,-52.246,-36.133,-28.320,-14.160,0.000
1728626168.174,-41.504,-23.438,-27.832,-8.301,0.000
1728626168.178,-38.086,-19.043,-31.250,-42.969,0.000
1728626168.182,-23.438,-31.738,-34.668,-51.270,0.000
1728626168.186,-34.668,-33.203,-30.762,-40.039,0.000
1728626168.190,-41.992,-22.461,-31.250,-28.320,0.000
1728626168.194,-38.086,-21.973,-31.250,-19.531,0.000
1728626168.197,-37.109,-32.227,-29.785,-42.969,0.000
1728626168.201,-28.320,-26.367,-22.461,-68.848,0.000
1728626168.205,-41.992,-27.344,-20.020,-60.547,0.000
1728626168.209,-48.340,-27.832,-20.020,-31.250,0.000
1728626168.213,-40.527,-19.043,-23.438,-12.207,0.000
1728626168.217,-36.621,-27.832,-28.320,-46.387,0.000
1728626168.221,-19.043,-27.344,-28.320,-64.453,0.000
1728626168.225,-29.297,-25.391,-35.156,-56.152,0.000
1728626168.229,-43.457,-28.809,-37.109,-27.832,0.000
1728626168.233,-27.832,-31.250,-37.598,-2.930,0.000
1728626168.236,-25.391,-35.156,-37.598,-36.133,0.000
1728626168.240,-20.996,-31.250,-34.180,-62.988,0.000
1728626168.244,-30.762,-34.668,-35.645,-54.688,0.000
1728626168.248,-43.457,-23.926,-41.504,-21.973,0.000
1728626168.253,-20.508,-12.207,-42.480,14.160,0.000
1728626168.257,-27.344,-28.809,-42.480,-14.648,0.000
1728626168.261,-40.039,-36.621,-39.551,-61.035,0.000
1728626168.264,-38.086,-28.320,-36.133,-58.594,0.000
1728626168.268,-48.828,-33.691,-39.551,-33.203,0.000
1728626168.272,-29.785,-29.785,-42.480,2.441,0.000
1728626168.276,-18.555,-13.672,-35.156,-9.277,0.000
1728626168.280,-22.949,-15.625,-27.832,-43.945,0.000
1728626168.284,-25.879,-29.785,-29.297,-48.340,0.000
1728626168.288,-36.133,-35.645,-28.809,-20.996,0.000
1728626168.292,-27.832,-24.414,-24.414,7.324,0.000
1728626168.296,-21.973,-23.926,-20.996,-17.090,0.000
1728626168.300,-30.762,-37.109,-29.297,-54.688,0.000
1728626168.304,-27.344,-32.227,-28.320,-48.828,0.000
1728626168.308,-34.180,-23.926,-17.578,-28.320,0.000
1728626168.312,-28.809,-20.020,-24.902,-3.906,0.000
1728626168.316,-37.598,-24.902,-36.621,-19.531,0.000
1728626168.320,-45.410,-35.645,-34.180,-47.363,0.000
1728626168.324,-30.273,-34.180,-34.180,-47.363,0.000
1728626168.327,-50.293,-33.691,-40.039,-44.922,0.000
1728626168.331,-54.199,-35.645,-38.086,-9.277,0.000
1728626168.335,-36.133,-39.062,-30.762,5.371,0.000
1728626168.339,-45.898,-37.598,-29.785,-47.363,0.000
1728626168.343,-42.969,-30.762,-34.180,-65.430,0.000
1728626168.347,-54.688,-37.598,-44.434,-50.293,0.000
1728626168.351,-58.594,-32.715,-37.109,-19.531,0.000
1728626168.355,-34.180,-21.973,-22.949,-2.930,0.000
1728626168.359,-40.527,-37.598,-40.527,-45.898,0.000
1728626168.363,-38.574,-40.527,-46.875,-59.570,0.000
1728626168.367,-44.922,-34.180,-36.621,-47.363,0.000
1728626168.371,-53.223,-32.227,-35.645,-26.855,0.000
1728626168.375,-39.062,-25.391,-34.668,-4.883,0.000
1728626168.379,-40.527,-35.645,-43.945,-29.785,0.000
1728626168.382,-30.762,-31.250,-43.945,-53.711,0.000
1728626168.386,-42.480,-24.902,-40.039,-58.105,0.000
1728626168.390,-54.199,-40.039,-40.039,-38.574,0.000
1728626168.394,-37.109,-40.039,-40.039,-0.488,0.000
1728626168.398,-43.945,-33.203,-50.293,-21.973,0.000
1728626168.402,-42.480,-30.762,-44.922,-54.199,0.000
1728626168.406,-42.480,-32.715,-30.273,-51.270,0.000
1728626168.410,-54.688,-35.645,-34.668,-38.574,0.000
1728626168.414,-42.480,-29.297,-41.992,-17.090,0.000
1728626168.418,-51.758,-28.320,-42.480,-39.551,0.000
1728626168.422,-43.457,-31.738,-36.621,-61.523,0.000
1728626168.426,-26.367,-39.062,-37.598,-52.734,0.000
1728626168.430,-46.387,-39.062,-39.062,-46.875,0.000
1728626168.433,-54.199,-29.785,-35.645,-15.137,0.000
1728626168.437,-55.176,-33.203,-32.227,-29.785,0.000
1728626168.441,-45.898,-42.969,-38.086,-69.336,0.000
1728626168.445,-36.621,-43.945,-37.109,-62.988,0.000
1728626168.449,-54.688,-39.062,-27.832,-26.855,0.000
1728626168.453,-44.922,-35.156,-22.949,0.977,0.000
1728626168.457,-44.434,-40.039,-25.879,-19.043,0.000
1728626168.461,-46.875,-40.039,-32.227,-54.688,0.000
1728626168.465,-36.621,-32.227,-28.320,-57.129,0.000
1728626168.469,-50.293,-39.062,-21.484,-39.551,0.000
1728626168.473,-46.387,-37.109,-19.043,-22.949,0.000
1728626168.477,-49.316,-34.180,-21.484,-34.668,0.000
1728626168.480,-43.945,-33.691,-26.367,-59.570,0.000
1728626168.484,-26.855,-34.180,-27.344,-58.105,0.000
1728626168.488,-43.945,-40.527,-26.367,-49.805,0.000
1728626168.492,-46.875,-26.367,-20.508,-17.578,0.000
1728626168.496,-20.996,-15.625,-8.301,2.441,0.000
1728626168.500,-21.973,-27.832,-16.602,-34.668,0.000
1728626168.504,-21.484,-36.621,-31.250,-52.246,0.000
1728626168.508,-37.109,-33.691,-26.367,-44.434,0.000
1728626168.512,-46.387,-29.297,-22.461,-18.555,0.000
1728626168.516,-28.809,-31.250,-24.414,2.930,0.000
1728626168.520,-29.785,-31.250,-31.738,-43.457,0.000
1728626168.524,-20.508,-30.273,-38.086,-59.082,0.000
1728626168.527,-31.738,-23.926,-35.645,-46.875,0.000
1728626168.531,-40.039,-20.508,-31.250,-24.902,0.000
1728626168.535,-29.785,-12.207,-25.391,-7.812,0.000
1728626168.539,-34.180,-3.906,-26.855,-37.598,0.000
1728626168.543,-26.855,-14.648,-31.738,-58.105,0.000
1728626168.547,-33.203,-23.926,-30.762,-53.223,0.000
1728626168.551,-41.016,-23.926,-27.832,-29.785,0.000
1728626168.555,-28.809,-32.227,-32.227,-7.812,0.000
1728626168.559,-43.457,-40.039,-42.969,-37.598,0.000
1728626168.562,-42.480,-29.297,-38.574,-76.660,0.000
1728626168.566,-37.598,-28.320,-25.879,-61.035,0.000
1728626168.570,-56.152,-33.203,-32.715,-33.691,0.000
1728626168.574,-41.992,-27.344,-33.691,-10.742,0.000
1728626168.578,-39.062,-25.391,-24.902,-14.160,0.000
1728626168.582,-39.062,-28.320,-28.320,-59.082,0.000
1728626168.586,-26.855,-34.668,-35.645,-62.500,0.000
1728626168.590,-42.480,-40.527,-35.645,-34.180,0.000
1728626168.594,-46.387,-38.574,-26.855,-13.184,0.000
1728626168.597,-43.945,-39.062,-26.855,-29.297,0.000
1728626168.601,-37.109,-35.645,-32.227,-46.387,0.000
1728626168.605,-28.809,-26.855,-31.250,-44.434,0.000
1728626168.609,-23.926,-25.879,-16.113,-39.062,0.000
1728626168.613,-7.812,-33.691,-4.883,16.113,0.000
1728626168.617,-13.672,-38.574,-14.648,17.578,0.000
1728626168.621,4.883,-11.230,-17.578,-28.320,0.000
1728626168.625,8.301,-9.766,-29.297,-48.340,0.000
1728626168.629,8.789,-2.930,-22.949,5.371,0.000
1728626168.633,-8.301,-23.438,-46.387,18.555,0.000
1728626168.637,-22.461,-69.336,-64.941,-24.902,0.000
1728626168.641,90.820,-22.461,14.648,61.035,0.000
1728626168.645,166.504,57.617,58.594,141.113,0.000
1728626168.649,4.395,-71.777,-69.824,11.230,0.000
1728626168.653,-25.879,-93.262,-80.078,5.859,0.000
1728626168.657,15.137,8.301,-20.020,33.203,0.000
1728626168.660,-107.422,-68.359,-99.121,-133.789,0.000
1728626168.664,-20.020,0.000,8.301,-54.199,0.000
1728626168.668,38.574,-18.555,12.695,38.574,0.000
1728626168.672,37.109,-81.055,-54.688,74.707,0.000
1728626168.676,-3.418,-61.035,-22.949,58.594,0.000
1728626168.680,-36.133,-119.629,-5.859,-14.160,0.000
1728626168.684,42.480,-131.348,30.273,24.902,0.000
1728626168.688,-32.715,-107.910,-18.555,-17.090,0.000
1728626168.692,-82.031,-57.129,-20.020,20.020,0.000
1728626168.696,-19.531,-22.949,11.719,91.309,0.000
1728626168.700,-9.766,-15.137,-11.719,70.312,0.000
1728626168.704,20.020,5.371,-5.859,80.566,0.000
1728626168.708,53.223,15.625,-3.418,120.605,0.000
1728626168.712,47.852,37.109,-45.410,159.668,0.000
1728626168.716,63.965,50.293,-25.391,195.312,0.000
1728626168.719,80.566,55.664,-2.930,197.754,0.000
1728626168.724,105.957,79.102,-9.277,193.848,0.000
1728626168.728,104.980,90.820,-15.625,195.312,0.000
1728626168.731,85.938,76.172,-28.320,204.590,0.000
1728626168.735,95.703,68.848,-33.691,232.422,0.000
1728626168.739,96.191,57.617,-42.969,217.285,0.000
1728626168.743,107.910,57.617,-50.293,193.359,0.000
1728626168.747,108.398,81.055,-53.711,200.195,0.000
1728626168.751,84.961,90.332,-52.246,222.656,0.000
1728626168.755,83.984,66.895,-57.129,243.652,0.000
1728626168.759,81.543,60.059,-68.359,208.984,0.000
1728626168.763,86.426,80.566,-62.988,174.805,0.000
1728626168.767,84.961,89.844,-58.594,167.969,0.000
1728626168.771,61.035,82.520,-61.035,166.992,0.000
1728626168.775,54.199,74.219,-59.570,181.641,0.000
1728626168.779,61.035,59.082,-59.082,168.945,0.000
1728626168.782,68.848,48.340,-58.594,135.254,0.000
1728626168.786,69.336,46.387,-58.594,115.723,0.000
1728626168.790,41.504,48.340,-53.223,119.629,0.000
1728626168.794,32.227,53.711,-49.316,148.926,0.000
1728626168.798,39.551,59.082,-55.664,137.695,0.000
1728626168.802,48.828,72.754,-53.223,104.004,0.000
1728626168.806,63.477,88.379,-40.527,100.098,0.000
1728626168.810,53.711,93.750,-25.879,98.145,0.000
1728626168.814,62.012,98.633,-24.902,114.746,0.000
1728626168.818,65.918,96.680,-21.973,121.094,0.000
1728626168.822,61.523,81.543,-11.230,80.078,0.000
1728626168.825,74.707,63.477,-13.184,56.641,0.000
1728626168.829,68.359,47.852,-17.578,57.617,0.000
1728626168.833,70.801,46.875,-5.371,77.148,0.000
1728626168.837,79.590,70.801,8.301,89.355,0.000
1728626168.841,81.055,90.820,10.254,65.430,0.000
1728626168.845,79.590,83.008,9.766,41.504,0.000
1728626168.849,47.852,78.613,11.230,38.086,0.000
1728626168.853,37.109,79.590,5.371,57.129,0.000
1728626168.857,42.969,63.477,-8.301,61.035,0.000
1728626168.861,31.738,49.316,-11.719,22.461,0.000
1728626168.864,45.898,42.969,-1.465,-4.395,0.000
1728626168.868,45.410,34.668,-1.953,-10.254,0.000
1728626168.872,21.484,15.137,-12.207,11.230,0.000
1728626168.876,18.555,9.277,-9.766,31.738,0.000
1728626168.880,21.973,15.625,2.930,3.418,0.000
1728626168.884,29.297,2.930,-5.371,-25.879,0.000
1728626168.888,-0.488,-28.320,-43.457,-48.340,0.000
1728626168.892,-26.855,-34.668,-39.062,-33.691,0.000
1728626168.896,-17.090,-25.391,-17.090,-7.324,0.000
1728626168.900,-30.273,-29.297,-21.973,-46.875,0.000
1728626168.904,-17.090,-33.691,-24.902,-74.219,0.000
1728626168.907,-8.789,-31.250,-17.578,-64.941,0.000
1728626168.911,-27.344,-30.273,-10.742,-46.387,0.000
1728626168.915,-9.277,-35.645,-12.207,-7.324,0.000
1728626168.919,-5.371,-38.574,-8.301,-12.207,0.000
1728626168.923,-6.836,-35.645,-6.348,-58.105,0.000
1728626168.927,-5.371,-44.922,-17.090,-68.848,0.000
1728626168.931,-15.625,-55.176,-14.648,-42.480,0.000
1728626168.935,3.906,-42.480,-2.930,-9.277,0.000
1728626168.939,9.277,-38.574,-9.766,-21.484,0.000
1728626168.942,-3.418,-53.223,-20.996,-59.082,0.000
1728626168.946,-2.930,-62.012,-21.484,-63.965,0.000
1728626168.950,-25.391,-64.453,-24.902,-59.570,0.000
1728626168.954,-30.762,-62.500,-32.715,-41.016,0.000
1728626168.958,-27.832,-64.941,-38.574,-43.945,0.000
1728626168.962,-30.273,-72.754,-41.016,-79.102,0.000
1728626168.966,-20.508,-77.148,-41.992,-82.520,0.000
1728626168.970,-35.645,-79.590,-42.480,-74.707,0.000
1728626168.973,-43.945,-74.707,-50.293,-55.664,0.000
1728626168.977,-33.691,-81.055,-59.082,-49.316,0.000
1728626168.981,-49.316,-89.844,-62.012,-88.867,0.000
1728626168.985,-65.918,-93.262,-58.594,-113.281,0.000
1728626168.989,-71.777,-103.516,-49.805,-104.492,0.000
1728626168.993,-70.312,-103.516,-46.875,-72.266,0.000
1728626168.997,-51.270,-99.609,-46.875,-50.293,0.000
1728626169.001,-46.875,-99.121,-42.480,-80.566,0.000
1728626169.005,-50.781,-104.004,-44.922,-103.516,0.000
1728626169.009,-60.547,-111.816,-44.922,-100.586,0.000
1728626169.013,-64.941,-109.863,-36.133,-62.012,0.000
1728626169.017,-56.641,-102.539,-35.156,-45.898,0.000
1728626169.021,-51.758,-98.145,-42.969,-91.309,0.000
1728626169.025,-30.762,-103.027,-39.551,-101.562,0.000
1728626169.029,-45.410,-99.609,-31.250,-88.867,0.000
1728626169.032,-61.523,-84.473,-31.250,-65.430,0.000
1728626169.036,-50.293,-95.215,-46.387,-54.688,0.000
1728626169.040,-60.547,-105.469,-58.105,-88.867,0.000
1728626169.044,-48.340,-81.543,-45.898,-102.051,0.000
1728626169.048,-38.574,-71.777,-33.691,-79.590,0.000
1728626169.052,-62.012,-83.984,-42.969,-52.734,0.000
1728626169.056,-58.594,-77.148,-40.527,-47.852,0.000
1728626169.060,-53.711,-73.242,-31.738,-84.961,0.000
1728626169.064,-41.016,-73.242,-36.133,-95.215,0.000
1728626169.068,-34.668,-67.871,-39.551,-85.449,0.000
1728626169.072,-66.895,-74.219,-43.457,-81.543,0.000
1728626169.076,-71.289,-69.824,-38.574,-51.758,0.000
1728626169.080,-62.500,-63.477,-36.621,-57.617,0.000
1728626169.084,-49.316,-77.148,-41.504,-96.680,0.000
1728626169.088,-51.270,-86.426,-47.363,-97.168,0.000
1728626169.091,-78.613,-69.824,-56.641,-80.078,0.000
1728626169.095,-74.219,-55.176,-56.641,-54.199,0.000
1728626169.100,-64.453,-50.781,-54.688,-68.359,0.000
1728626169.103,-42.969,-43.945,-50.293,-88.379,0.000
1728626169.107,-23.926,-47.363,-40.039,-80.078,0.000
1728626169.111,-44.434,-53.223,-40.527,-65.430,0.000
1728626169.115,-59.082,-55.176,-38.086,-34.180,0.000
1728626169.119,-68.848,-54.688,-40.527,-48.340,0.000
1728626169.123,-64.453,-42.969,-44.922,-97.656,0.000
1728626169.127,-48.340,-45.898,-50.293,-101.074,0.000
1728626169.131,-66.895,-63.965,-56.641,-81.543,0.000
1728626169.135,-72.266,-59.570,-50.781,-61.523,0.000
1728626169.139,-68.359,-46.875,-54.199,-64.453,0.000
1728626169.142,-72.754,-53.711,-58.105,-91.309,0.000
1728626169.147,0.000,-65.918,-47.363,-86.914,0.000
1728626169.150,0.000,-66.895,-41.016,-73.730,0.000
1728626169.154,0.000,-58.105,-42.969,-53.223,0.000
1728626169.158,0.000,-52.734,-49.316,-42.969,0.000
1728626169.162,0.000,-49.316,-46.387,-69.336,0.000
1728626169.166,0.000,-48.340,-38.574,-91.309,0.000
1728626169.170,0.000,-68.359,-43.945,-92.773,0.000
1728626169.174,0.000,-73.242,-43.457,-56.152,0.000
1728626169.178,0.000,-69.336,-36.621,-38.574,0.000
1728626169.182,0.000,-62.988,-40.039,-79.102,0.000
1728626169.186,0.000,-53.223,-42.969,-94.238,0.000
1728626169.190,0.000,-56.641,-39.551,-80.566,0.000
1728626169.194,-69.336,-62.012,-44.922,-70.801,0.000
1728626169.197,-58.105,-54.199,-43.945,-42.480,0.000
1728626169.201,-47.363,-42.480,-39.551,-45.898,0.000
1728626169.205,-46.387,-52.246,-46.875,-79.102,0.000
1728626169.209,-50.781,-54.688,-51.758,-83.496,0.000
1728626169.213,-54.688,-43.945,-38.086,-50.781,0.000
1728626169.217,-37.109,-45.898,-23.926,-30.273,0.000
1728626169.221,-22.949,-48.828,-24.902,-43.945,0.000
1728626169.225,-29.785,-53.223,-36.621,-68.848,0.000
1728626169.229,-56.152,-52.246,-54.688,-88.379,0.000
1728626169.233,-75.684,-44.922,-57.129,-65.918,0.000
1728626169.236,-67.383,-47.363,-56.152,-33.691,0.000
1728626169.240,-61.035,-50.293,-56.641,-56.641,0.000
1728626169.244,-44.434,-41.016,-54.199,-85.938,0.000
1728626169.248,-37.598,-41.504,-49.316,-83.008,0.000
1728626169.252,-61.035,-41.992,-41.016,-70.312,0.000
1728626169.256,-53.711,-43.457,-38.574,-27.344,0.000
1728626169.260,-42.480,-58.105,-46.387,-39.551,0.000
1728626169.264,-32.227,-57.129,-41.992,-75.195,0.000
1728626169.268,-32.227,-58.594,-46.387,-68.848,0.000
1728626169.272,-57.617,-54.688,-52.246,-66.895,0.000
1728626169.275,-55.664,-35.645,-51.270,-41.504,0.000
1728626169.279,-48.828,-32.715,-53.223,-30.273,0.000
1728626169.283,-43.457,-39.551,-52.246,-59.570,0.000
1728626169.287,-29.297,-39.551,-50.781,-71.777,0.000
1728626169.291,-53.223,-44.922,-51.758,-65.430,0.000
1728626169.295,-55.176,-49.316,-48.828,-38.086,0.000
1728626169.299,-39.062,-47.363,-45.410,-45.898,0.000
1728626169.303,-37.109,-45.410,-46.875,-81.055,0.000
1728626169.307,-28.809,-59.570,-51.270,-88.379,0.000
1728626169.310,-47.363,-67.383,-52.734,-67.383,0.000
1728626169.314,-52.734,-40.527,-45.898,-33.203,0.000
1728626169.318,-39.551,-33.203,-43.945,-29.297,0.000
1728626169.322,-46.875,-54.688,-50.781,-65.430,0.000
1728626169.326,-42.480,-54.199,-45.410,-82.520,0.000
1728626169.330,-45.410,-37.598,-31.738,-61.523,0.000
1728626169.334,-59.570,-45.410,-35.645,-37.598,0.000
1728626169.338,-62.012,-56.152,-41.016,-34.668,0.000
1728626169.341,-62.012,-59.082,-36.621,-60.547,0.000
1728626169.345,-47.852,-55.176,-32.715,-79.102,0.000
1728626169.349,-50.293,-45.410,-37.598,-74.707,0.000
1728626169.353,-66.406,-52.734,-45.898,-52.246,0.000
1728626169.357,-55.664,-58.594,-45.410,-24.414,0.000
1728626169.361,-50.781,-40.039,-36.621,-45.898,0.000
1728626169.365,-42.480,-33.691,-37.598,-78.125,0.000
1728626169.369,-39.062,-52.246,-42.480,-78.613,0.000
1728626169.373,-48.828,-49.316,-35.645,-40.039,0.000
1728626169.377,-41.016,-41.016,-30.273,-15.625,0.000
1728626169.381,-35.156,-45.410,-28.320,-49.805,0.000
1728626169.385,-29.785,-41.992,-26.855,-65.430,0.000
1728626169.389,-38.086,-41.016,-32.227,-64.453,0.000
1728626169.393,-51.270,-38.086,-35.645,-55.176,0.000
1728626169.397,-36.621,-27.832,-26.855,-28.320,0.000
1728626169.401,-39.062,-31.738,-15.625,-36.621,0.000
1728626169.404,-42.969,-51.758,-29.297,-62.500,0.000
1728626169.408,-45.898,-58.105,-32.715,-70.801,0.000
1728626169.412,-54.199,-54.688,-22.461,-55.664,0.000
1728626169.416,-32.715,-50.293,-22.461,-20.508,0.000
1728626169.420,-43.945,-40.039,-17.090,-30.762,0.000
1728626169.424,-51.270,-38.574,-23.438,-54.688,0.000
1728626169.428,-35.156,-41.016,-34.668,-63.965,0.000
1728626169.432,-50.781,-38.574,-41.992,-61.523,0.000
1728626169.436,-55.664,-37.109,-44.434,-37.598,0.000
1728626169.440,-50.781,-42.480,-40.039,-41.992,0.000
1728626169.444,-39.062,-50.781,-41.016,-72.754,0.000
1728626169.448,-20.996,-52.734,-41.992,-70.801,0.000
1728626169.452,-48.340,-47.852,-40.527,-54.688,0.000
1728626169.456,-55.176,-39.551,-41.992,-29.297,0.000
1728626169.459,-47.363,-47.852,-50.781,-34.180,0.000
1728626169.463,-43.945,-48.828,-41.016,-70.801,0.000
1728626169.467,-11.719,-30.273,-25.391,-75.684,0.000
1728626169.471,-21.973,-21.973,-31.738,-56.152,0.000
1728626169.475,-41.016,-38.086,-43.945,-22.461,0.000
1728626169.479,-37.109,-48.828,-40.527,-20.020,0.000
1728626169.483,-41.992,-41.504,-31.250,-58.105,0.000
1728626169.487,-44.434,-41.016,-37.598,-66.406,0.000
1728626169.491,-56.152,-41.504,-35.645,-61.035,0.000
1728626169.495,-53.711,-38.086,-20.996,-38.086,0.000
1728626169.499,-35.156,-32.715,-19.531,-23.926,0.000
1728626169.503,-42.969,-30.273,-24.902,-61.523,0.000
1728626169.506,-26.367,-30.273,-26.367,-64.453,0.000
1728626169.510,-17.578,-26.855,-26.367,-46.875,0.000
1728626169.514,-38.086,-25.879,-30.273,-27.832,0.000
1728626169.518,-38.086,-28.320,-36.621,-11.719,0.000
1728626169.522,0.000,-33.691,-37.109,-48.828,0.000
1728626169.526,0.000,-40.039,-35.645,-72.266,0.000
1728626169.530,0.000,-41.992,-37.598,-67.383,0.000
1728626169.534,0.000,-45.898,-31.738,-43.457,0.000
1728626169.538,0.000,-41.992,-19.531,-8.301,0.000
1728626169.542,0.000,-48.828,-28.809,-26.855,0.000
1728626169.546,0.000,-47.363,-38.086,-61.523,0.000
1728626169.550,0.000,-38.574,-23.438,-50.781,0.000
1728626169.554,0.000,-41.992,-13.672,-25.879,0.000
1728626169.557,0.000,-34.668,-24.902,-19.043,0.000
1728626169.561,0.000,-43.457,-31.250,-41.504,0.000
1728626169.565,0.000,-55.176,-36.133,-72.266,0.000
1728626169.569,-35.645,-48.340,-37.109,-70.312,0.000
1728626169.573,-57.129,-36.133,-32.715,-42.969,0.000
1728626169.577,-48.340,-51.270,-32.715,-26.855,0.000
1728626169.581,-42.969,-55.664,-26.367,-38.574,0.000
1728626169.585,-37.109,-44.434,-15.625,-54.199,0.000
1728626169.589,-29.785,-48.828,-16.113,-53.223,0.000
1728626169.593,-45.898,-37.598,-20.020,-35.645,0.000
1728626169.596,-41.992,-43.945,-18.555,-11.719,0.000
1728626169.600,-34.180,-51.270,-22.949,-25.879,0.000
1728626169.604,-38.086,-39.551,-29.297,-70.801,0.000
1728626169.608,-39.062,-47.363,-28.809,-80.078,0.000
1728626169.612,-48.828,-58.105,-29.297,-57.617,0.000
1728626169.616,-40.527,-36.133,-29.785,-31.250,0.000
1728626169.620,-31.250,-22.949,-25.391,-35.156,0.000
1728626169.624,-10.254,-21.973,-30.273,-64.941,0.000
1728626169.628,0.977,-13.672,-28.320,-65.430,0.000
1728626169.632,-31.250,-28.320,-35.156,-49.805,0.000
1728626169.635,-42.969,-38.574,-49.316,-34.668,0.000
1728626169.639,-41.016,-38.574,-44.922,-31.250,0.000
1728626169.643,-52.734,-44.922,-41.504,-57.129,0.000
1728626169.647,-51.758,-37.598,-33.203,-73.242,0.000
1728626169.651,-42.480,-30.762,-19.531,-51.758,0.000
1728626169.655,-27.344,-25.391,-16.602,-1.465,0.000
1728626169.659,-29.785,-33.691,-27.832,6.836,0.000
1728626169.663,-43.457,-53.711,-29.297,-37.598,0.000
1728626169.666,-27.344,-39.551,-28.320,-60.059,0.000
1728626169.670,-32.715,-32.227,-38.574,-59.570,0.000
1728626169.674,-54.688,-45.410,-37.109,-32.715,0.000
1728626169.678,-36.621,-40.527,-33.203,-9.277,0.000
1728626169.682,-23.438,-29.785,-30.273,-37.598,0.000
1728626169.686,-16.113,-20.996,-21.973,-51.758,0.000
1728626169.690,-34.180,-25.879,-24.902,-52.246,0.000
1728626169.694,-67.383,-41.992,-35.156,-44.922,0.000
1728626169.698,-53.711,-43.457,-32.227,-15.137,0.000
1728626169.702,-36.621,-29.785,-21.973,-34.180,0.000
1728626169.706,-25.391,-27.344,-31.738,-63.477,0.000
1728626169.709,-38.574,-35.156,-40.039,-57.617,0.000
1728626169.713,-55.664,-28.809,-32.715,-32.715,0.000
1728626169.717,-43.945,-33.203,-30.273,-23.926,0.000
1728626169.721,-56.152,-47.852,-43.457,-55.664,0.000
1728626169.725,-52.734,-53.223,-45.898,-77.148,0.000
1728626169.729,-46.387,-52.246,-37.109,-71.777,0.000
1728626169.733,-61.035,-52.246,-34.668,-40.527,0.000
1728626169.737,-54.199,-45.898,-32.715,-17.090,0.000
1728626169.740,-51.758,-49.805,-41.016,-39.551,0.000
1728626169.744,-42.969,-44.434,-42.480,-54.199,0.000
1728626169.748,-30.762,-30.762,-32.227,-57.129,0.000
1728626169.752,-58.594,-41.992,-37.598,-49.805,0.000
1728626169.756,-53.711,-48.828,-43.457,-21.484,0.000
1728626169.760,-38.086,-45.410,-41.504,-30.273,0.000
1728626169.764,-44.434,-41.992,-41.016,-67.871,0.000
1728626169.768,-36.133,-42.480,-35.156,-65.918,0.000
1728626169.772,-41.016,-41.504,-30.762,-36.621,0.000
1728626169.776,-34.180,-35.645,-31.250,-5.371,0.000
1728626169.780,-20.020,-28.320,-22.949,-4.883,0.000
1728626169.784,-24.902,-37.109,-23.926,-43.945,0.000
1728626169.788,-34.668,-46.387,-36.133,-71.777,0.000
1728626169.792,-40.527,-45.410,-31.250,-53.223,0.000
1728626169.796,-32.715,-31.738,-22.949,-11.230,0.000
1728626169.799,-37.598,-24.902,-27.832,-16.113,0.000
1728626169.804,-45.898,-36.621,-28.320,-51.758,0.000
1728626169.808,-24.902,-38.086,-20.996,-58.105,0.000
1728626169.811,-35.156,-31.738,-30.273,-47.363,0.000
1728626169.815,-46.875,-33.691,-44.434,-21.484,0.000
1728626169.819,-28.320,-32.227,-37.109,-2.930,0.000
1728626169.823,-35.156,-26.855,-32.715,-44.922,0.000
1728626169.827,-36.133,-20.020,-35.156,-62.012,0.000
1728626169.831,-41.504,-19.043,-26.367,-45.898,0.000
1728626169.835,-44.434,-28.320,-23.926,-25.879,0.000
1728626169.839,-35.645,-31.250,-26.367,-17.578,0.000
1728626169.843,-40.527,-24.414,-23.926,-53.223,0.000
1728626169.847,-39.551,-22.461,-29.297,-66.895,0.000
1728626169.851,0.000,-32.715,-26.855,-58.594,0.000
1728626169.855,0.000,-39.062,-20.508,-38.574,0.000
1728626169.859,0.000,-27.832,-22.461,3.906,0.000
1728626169.862,0.000,-28.320,-25.879,-28.809,0.000
1728626169.866,0.000,-37.109,-30.762,-75.195,0.000
1728626169.870,0.000,-33.691,-27.344,-62.988,0.000
1728626169.874,0.000,-26.367,-22.949,-35.645,0.000
1728626169.878,0.000,-20.996,-33.691,-5.371,0.000
1728626169.882,0.000,-33.691,-45.898,-27.832,0.000
1728626169.886,0.000,-38.574,-43.945,-69.824,0.000
1728626169.890,0.000,-41.504,-39.062,-73.730,0.000
1728626169.894,0.000,-46.875,-32.227,-54.199,0.000
1728626169.898,-51.758,-44.434,-30.273,-18.066,0.000
1728626169.902,-51.758,-44.922,-40.039,-29.297,0.000
1728626169.906,-47.363,-44.434,-48.340,-62.988,0.000
1728626169.909,-37.598,-31.250,-50.293,-51.270,0.000
1728626169.913,-40.039,-17.090,-43.457,-18.555,0.000
1728626169.917,-30.762,-22.949,-32.715,14.160,0.000
1728626169.921,-40.039,-37.109,-37.598,-12.207,0.000
1728626169.925,-36.621,-39.551,-36.621,-63.965,0.000
1728626169.929,-26.855,-40.527,-35.156,-68.359,0.000
1728626169.933,-50.293,-31.250,-39.062,-52.734,0.000
1728626169.937,-46.387,-22.461,-36.621,-21.484,0.000
1728626169.941,-26.367,-20.508,-28.320,-8.301,0.000
1728626169.945,-22.949,-13.184,-24.902,-32.227,0.000
1728626169.948,-9.766,-9.766,-26.855,-39.551,0.000
1728626169.952,-17.090,-19.531,-25.391,-21.484,0.000
1728626169.956,-31.738,-22.461,-20.508,1.953,0.000
1728626169.960,-40.039,-20.996,-20.996,-3.418,0.000
1728626169.964,-44.434,-33.203,-25.391,-46.387,0.000
1728626169.968,-30.762,-38.574,-24.902,-69.336,0.000
1728626169.972,-45.410,-33.691,-23.438,-59.082,0.000
1728626169.976,-51.758,-25.391,-19.531,-31.738,0.000
1728626169.980,-42.969,-21.484,-26.855,-24.902,0.000
1728626169.984,-36.621,-31.738,-31.738,-51.270,0.000
1728626169.988,-9.277,-29.785,-27.832,-65.430,0.000
1728626169.991,-24.414,-31.250,-27.832,-61.035,0.000
1728626169.995,-60.059,-41.016,-23.926,-35.156,0.000
1728626169.999,-53.223,-42.969,-17.090,-17.090,0.000
1728626170.003,-48.340,-40.039,-12.207,-43.945,0.000
1728626170.007,-43.457,-34.668,-19.043,-67.871,0.000
1728626170.011,-58.105,-40.039,-31.250,-64.453,0.000
1728626170.015,-64.941,-41.992,-26.855,-39.062,0.000
1728626170.019,-50.781,-36.621,-26.367,-26.367,0.000
1728626170.023,-58.594,-32.227,-36.621,-61.035,0.000
1728626170.026,-59.570,-36.133,-41.504,-94.727,0.000
1728626170.030,-59.082,-45.898,-35.645,-87.402,0.000
1728626170.034,-62.500,-40.039,-25.879,-60.547,0.000
1728626170.038,-49.316,-32.227,-23.438,-25.391,0.000
1728626170.042,-46.875,-37.598,-22.949,-41.504,0.000
1728626170.046,-42.969,-33.203,-28.809,-76.660,0.000
1728626170.050,-38.086,-31.250,-32.227,-70.312,0.000
1728626170.054,-57.617,-43.457,-31.250,-54.199,0.000
1728626170.057,-58.594,-37.598,-38.086,-28.809,0.000
1728626170.061,-58.594,-36.621,-41.504,-42.969,0.000
1728626170.065,-46.387,-40.039,-36.621,-61.523,0.000
1728626170.069,-30.273,-37.109,-34.180,-48.828,0.000
1728626170.073,-44.434,-37.598,-28.320,-20.996,0.000
1728626170.077,-29.785,-19.043,-15.625,17.090,0.000
1728626170.081,-28.809,-17.578,-27.832,-3.418,0.000
1728626170.084,-35.645,-30.762,-47.852,-50.781,0.000
1728626170.088,-11.719,-24.902,-40.039,-47.363,0.000
1728626170.092,-27.832,-13.672,-22.949,-26.855,0.000
1728626170.096,-34.668,-11.230,-17.090,0.000,0.000
1728626170.100,-19.043,-24.414,-28.809,2.930,0.000
1728626170.104,-25.879,-33.691,-30.273,-27.344,0.000
1728626170.108,-26.855,-31.250,-26.855,-53.223,0.000
1728626170.112,-36.621,-24.414,-29.785,-50.293,0.000
1728626170.116,-29.297,-13.672,-27.344,-12.695,0.000
1728626170.120,-16.602,-13.184,-39.551,-15.137,0.000
1728626170.124,-23.438,-18.555,-42.480,-62.988,0.000
1728626170.127,-21.973,-15.137,-28.809,-68.848,0.000
1728626170.132,-43.945,-20.020,-33.691,-57.617,0.000
1728626170.136,-60.547,-33.691,-35.645,-30.762,0.000
1728626170.140,-57.129,-35.156,-26.367,-19.043,0.000
1728626170.143,-49.316,-36.621,-24.902,-52.734,0.000
1728626170.147,-30.273,-39.062,-26.367,-62.500,0.000
1728626170.151,-43.457,-44.922,-35.645,-56.641,0.000
1728626170.155,-52.734,-37.109,-29.785,-31.250,0.000
1728626170.159,-40.039,-32.227,-28.809,-9.766,0.000
1728626170.163,-41.504,-37.109,-39.551,-32.715,0.000
1728626170.167,-27.344,-35.156,-27.832,-51.758,0.000
1728626170.171,-33.203,-33.203,-20.508,-57.129,0.000
1728626170.175,-43.945,-30.762,-24.414,-24.414,0.000
1728626170.179,-30.762,-27.344,-30.762,-13.672,0.000
1728626170.183,-45.410,-28.320,-38.086,-57.129,0.000
1728626170.187,-39.062,-26.855,-39.551,-83.984,0.000
1728626170.191,-28.320,-35.156,-34.180,-65.430,0.000
1728626170.194,-41.992,-39.551,-34.180,-33.691,0.000
1728626170.198,-25.879,-30.762,-39.062,-14.160,0.000
1728626170.202,-31.250,-35.645,-42.969,-41.992,0.000
1728626170.206,-27.344,-40.039,-34.180,-57.617,0.000
1728626170.210,-9.277,-29.297,-28.320,-38.086,0.000
1728626170.214,-32.715,-26.855,-38.086,-20.996,0.000
1728626170.218,-48.828,-32.715,-48.828,1.953,0.000
1728626170.222,-44.434,-26.367,-54.199,-19.043,0.000
1728626170.226,-14.160,-27.344,-46.875,-46.875,0.000
1728626170.230,-5.859,-28.320,-33.203,-41.504,0.000
1728626170.234,-37.598,-22.461,-29.785,-31.738,0.000
1728626170.238,-29.297,-25.391,-27.832,-3.906,0.000
1728626170.242,-19.531,-26.855,-28.809,-8.301,0.000
1728626170.245,-12.695,-26.367,-26.367,-30.762,0.000
1728626170.249,2.930,-19.043,-18.555,-28.809,0.000
1728626170.253,-12.207,-8.301,-22.949,-21.973,0.000
1728626170.257,-18.555,-21.973,-32.715,-2.930,0.000
1728626170.261,-20.996,-22.461,-30.273,-2.930,0.000
1728626170.265,-17.090,-1.465,-19.531,-46.387,0.000
1728626170.269,-9.277,-10.742,-16.602,-53.711,0.000
1728626170.273,-30.273,-21.973,-29.785,-39.551,0.000
1728626170.277,-22.461,-18.066,-26.855,-17.578,0.000
1728626170.281,-16.602,-21.973,-12.695,-5.371,0.000
1728626170.285,-27.832,-19.531,-18.555,-34.668,0.000
1728626170.288,-7.324,-10.742,-21.973,-49.316,0.000
1728626170.292,-21.973,-23.438,-26.855,-45.410,0.000
1728626170.296,-33.691,-35.645,-35.645,-21.484,0.000
1728626170.300,-17.090,-31.738,-37.598,-8.301,0.000
1728626170.304,-17.090,-31.250,-35.156,-38.574,0.000
1728626170.308,-29.785,-33.203,-33.203,-64.453,0.000
1728626170.312,-53.223,-40.527,-35.156,-64.453,0.000
1728626170.316,-56.641,-34.180,-35.645,-37.109,0.000
1728626170.320,-38.086,-33.203,-31.738,-19.531,0.000
1728626170.324,-37.109,-37.598,-28.809,-51.270,0.000
1728626170.328,-23.926,-33.203,-39.062,-72.266,0.000
1728626170.331,-36.133,-38.574,-44.434,-61.035,0.000
1728626170.335,-53.223,-44.922,-36.133,-37.598,0.000
1728626170.339,-38.574,-45.410,-24.902,-12.695,0.000
1728626170.343,-31.738,-43.945,-20.996,-28.320,0.000
1728626170.347,-30.762,-52.734,-24.902,-44.922,0.000
1728626170.351,-50.293,-60.059,-26.367,-54.688,0.000
1728626170.355,-74.219,-52.734,-34.668,-51.758,0.000
1728626170.359,-59.570,-47.852,-37.598,-23.438,0.000
1728626170.363,-47.363,-41.016,-23.438,-37.598,0.000
1728626170.366,-34.180,-28.320,-11.230,-61.035,0.000
1728626170.370,-20.996,-26.367,-19.531,-56.641,0.000
1728626170.374,-23.438,-26.367,-26.855,-35.645,0.000
1728626170.378,-22.461,-30.762,-17.090,-12.207,0.000
1728626170.382,-27.344,-42.480,-18.066,-22.949,0.000
1728626170.386,-16.113,-41.016,-23.438,-45.898,0.000
1728626170.390,-9.766,-41.992,-30.762,-47.852,0.000
1728626170.394,-17.578,-37.109,-38.086,-33.691,0.000
1728626170.398,-20.020,-20.996,-30.762,-7.324,0.000
1728626170.402,-23.438,-27.344,-24.414,-9.277,0.000
1728626170.405,-7.812,-31.250,-20.996,-40.527,0.000
1728626170.409,-16.113,-24.414,-20.020,-51.270,0.000
1728626170.413,-52.734,-24.414,-30.762,-39.551,0.000
1728626170.417,-45.898,-30.273,-30.273,-13.184,0.000
1728626170.421,-46.387,-40.527,-18.066,-17.578,0.000
1728626170.425,-43.457,-25.879,-14.160,-47.363,0.000
1728626170.429,-21.973,-25.391,-17.578,-57.129,0.000
1728626170.433,-32.715,-32.227,-15.625,-41.504,0.000
1728626170.437,-43.945,-26.367,-10.742,-7.812,0.000
1728626170.440,-34.180,-25.879,-16.113,-9.277,0.000
1728626170.444,-28.320,-31.250,-22.461,-48.828,0.000
1728626170.448,-27.832,-25.879,-19.043,-55.176,0.000
1728626170.452,-38.086,-31.250,-18.555,-33.203,0.000
1728626170.456,-51.758,-39.551,-17.578,-8.301,0.000
1728626170.460,-56.152,-33.691,-21.973,-21.973,0.000
1728626170.464,-55.176,-39.062,-30.762,-60.059,0.000
1728626170.467,-43.457,-40.527,-35.645,-73.242,0.000
1728626170.471,-51.270,-44.434,-31.250,-63.965,0.000
1728626170.475,-59.570,-44.922,-23.438,-26.855,0.000
1728626170.479,-45.898,-37.109,-31.250,-7.812,0.000
1728626170.483,-44.922,-49.805,-42.480,-34.668,0.000
1728626170.487,-31.738,-43.457,-42.969,-58.105,0.000
1728626170.491,-27.832,-33.691,-39.551,-54.199,0.000
1728626170.495,-38.574,-38.574,-34.180,-29.297,0.000
1728626170.499,-43.457,-31.250,-33.203,-17.090,0.000
1728626170.503,-52.734,-23.926,-40.527,-46.387,0.000
1728626170.507,-45.898,-32.715,-47.363,-78.125,0.000
1728626170.511,-57.129,-39.551,-50.781,-71.289,0.000
1728626170.515,-56.152,-32.227,-43.945,-35.156,0.000
1728626170.519,-37.598,-31.738,-29.785,-6.836,0.000
1728626170.523,-32.227,-30.762,-23.438,-20.996,0.000
1728626170.526,-20.508,-28.320,-24.902,-49.805,0.000
1728626170.530,-32.715,-31.738,-32.227,-55.664,0.000
1728626170.534,-47.363,-21.973,-29.785,-26.855,0.000
1728626170.538,-36.621,-16.113,-33.691,4.883,0.000
1728626170.542,-38.086,-26.367,-49.316,-18.066,0.000
1728626170.546,-26.367,-19.531,-45.410,-50.781,0.000
1728626170.550,-20.020,-14.648,-41.016,-58.105,0.000
1728626170.554,-42.969,-23.438,-31.738,-39.062,0.000
1728626170.558,-31.738,-18.066,-22.461,-9.277,0.000
1728626170.562,-29.785,-9.277,-23.438,-20.996,0.000
1728626170.566,-36.133,-17.090,-27.832,-45.898,0.000
1728626170.570,-23.438,-20.508,-32.227,-54.688,0.000
1728626170.574,-43.945,-20.996,-34.180,-42.480,0.000
1728626170.577,-39.062,-22.949,-36.133,-10.254,0.000
1728626170.581,-21.973,-29.785,-38.574,-20.996,0.000
1728626170.585,-29.785,-39.062,-47.852,-56.641,0.000
1728626170.589,-22.949,-34.668,-40.039,-59.082,0.000
1728626170.593,-21.484,-30.762,-23.438,-55.176,0.000
1728626170.597,-33.691,-30.762,-21.973,-31.738,0.000
1728626170.601,-38.086,-32.227,-27.832,-8.789,0.000
1728626170.605,-40.527,-33.691,-35.156,-41.504,0.000
1728626170.609,-30.273,-31.250,-35.156,-72.266,0.000
1728626170.613,-45.410,-39.062,-32.715,-57.617,0.000
1728626170.617,-50.781,-38.086,-24.902,-18.066,0.000
1728626170.621,-37.598,-36.621,-29.785,-4.883,0.000
1728626170.624,-45.898,-44.922,-33.203,-44.922,0.000
1728626170.628,-40.527,-37.109,-18.066,-68.359,0.000
1728626170.632,-42.969,-40.527,-11.719,-47.363,0.000
1728626170.636,-52.246,-45.898,-19.531,-20.508,0.000
1728626170.640,-54.688,-36.621,-29.297,-16.113,0.000
1728626170.644,-40.039,-37.109,-34.668,-37.598,0.000
1728626170.648,-10.254,-36.133,-28.809,-37.598,0.000
1728626170.652,-28.809,-34.180,-26.367,-33.691,0.000
1728626170.656,-39.551,-28.809,-24.902,-20.020,0.000
1728626170.660,-16.113,-28.809,-23.926,-1.953,0.000
1728626170.664,-17.090,-26.367,-18.555,-22.949,0.000
1728626170.668,-14.160,-15.137,-13.184,-46.875,0.000
1728626170.671,-20.020,-21.973,-30.273,-51.270,0.000
1728626170.675,-36.621,-31.738,-42.969,-37.598,0.000
1728626170.679,-30.273,-33.691,-38.086,-11.719,0.000
1728626170.683,-31.738,-28.809,-38.574,-27.832,0.000
1728626170.687,-24.902,-24.414,-36.621,-47.852,0.000
1728626170.691,-26.855,-32.227,-28.809,-54.688,0.000
1728626170.695,-29.297,-28.809,-24.414,-38.086,0.000
1728626170.699,-26.367,-17.090,-20.508,-11.230,0.000
1728626170.703,-25.879,-24.414,-15.625,-23.926,0.000
1728626170.707,-25.879,-33.691,-18.555,-49.805,0.000
1728626170.710,-41.504,-39.062,-19.043,-60.547,0.000
1728626170.714,-43.945,-42.480,-26.367,-44.434,0.000
1728626170.718,-29.785,-32.715,-24.902,1.953,0.000
1728626170.722,-27.344,-27.832,-13.672,7.324,0.000
1728626170.726,-26.367,-34.668,-21.484,-45.898,0.000
1728626170.730,-16.113,-32.227,-11.230,-52.734,0.000
1728626170.734,-37.109,-18.066,-7.812,-35.645,0.000
1728626170.738,-50.293,-18.555,-13.672,-16.113,0.000
1728626170.742,-48.340,-27.344,-20.508,-23.438,0.000
1728626170.745,-43.945,-34.668,-30.273,-56.641,0.000
1728626170.749,-32.227,-36.621,-23.438,-55.176,0.000
1728626170.753,-51.758,-41.016,-34.668,-44.922,0.000
1728626170.757,-44.434,-34.180,-41.992,-11.719,0.000
1728626170.761,-26.855,-27.344,-22.949,0.977,0.000
1728626170.765,-40.039,-31.738,-16.602,-38.574,0.000
1728626170.769,-34.668,-40.039,-16.113,-46.875,0.000
1728626170.773,-44.922,-33.691,-13.672,-23.926,0.000
1728626170.777,-51.270,-28.320,-18.555,-11.230,0.000
1728626170.781,-38.086,-32.715,-26.855,-13.184,0.000
1728626170.785,-40.039,-35.645,-20.020,-45.410,0.000
1728626170.788,-28.809,-33.691,-17.090,-54.688,0.000
1728626170.792,-21.973,-27.832,-30.762,-34.668,0.000
1728626170.796,-18.066,-18.555,-27.344,-6.836,0.000
1728626170.800,-14.160,-17.090,-13.184,-2.441,0.000
1728626170.804,-28.809,-33.203,-26.855,-43.945,0.000
1728626170.808,-25.391,-46.387,-42.969,-57.129,0.000
1728626170.812,-34.180,-48.828,-47.852,-37.109,0.000
1728626170.816,-48.340,-39.551,-46.387,-16.113,0.000
1728626170.819,-41.992,-33.691,-39.551,-8.789,0.000
1728626170.823,-39.551,-30.762,-39.062,-25.879,0.000
1728626170.827,-17.090,-22.461,-48.828,-37.598,0.000
1728626170.831,-26.855,-30.273,-44.922,-38.086,0.000
1728626170.835,-52.246,-29.297,-35.156,-24.414,0.000
1728626170.839,-38.086,-25.879,-30.762,-0.488,0.000
1728626170.843,-46.387,-28.320,-34.180,-31.250,0.000
1728626170.846,-44.434,-27.832,-41.504,-59.082,0.000
1728626170.850,-25.391,-30.762,-33.691,-48.828,0.000
1728626170.854,-32.715,-25.879,-23.926,-17.090,0.000
1728626170.858,-32.715,-20.996,-31.738,10.254,0.000
1728626170.862,-47.363,-26.855,-42.969,-28.809,0.000
1728626170.866,-41.992,-28.320,-35.645,-60.059,0.000
1728626170.870,-28.320,-27.832,-32.227,-62.988,0.000
1728626170.874,-45.410,-23.926,-41.992,-52.246,0.000
1728626170.878,-31.250,-6.348,-44.434,-20.508,0.000
1728626170.882,-28.320,-17.578,-46.875,-46.875,0.000
1728626170.886,-37.598,-33.691,-41.992,-75.195,0.000
1728626170.890,-38.574,-37.109,-43.945,-73.730,0.000
1728626170.894,-61.035,-49.316,-48.340,-65.918,0.000
1728626170.898,-54.199,-42.969,-41.992,-24.902,0.000
1728626170.901,-51.758,-43.945,-38.086,-29.785,0.000
1728626170.905,-47.363,-52.734,-38.574,-61.523,0.000
1728626170.909,-37.109,-47.852,-39.062,-68.848,0.000
1728626170.913,-54.199,-42.969,-42.480,-64.941,0.000
1728626170.917,-41.992,-40.527,-34.180,-24.414,0.000
1728626170.921,-49.805,-39.551,-26.367,-17.090,0.000
1728626170.925,-66.895,-50.781,-30.762,-67.871,0.000
1728626170.929,-57.129,-63.477,-32.715,-74.219,0.000
1728626170.933,-75.195,-62.500,-36.133,-56.152,0.000
1728626170.937,-68.848,-49.805,-38.574,-28.809,0.000
1728626170.941,-50.293,-41.016,-31.738,-13.672,0.000
1728626170.945,-54.688,-41.504,-28.809,-42.480,0.000
1728626170.949,-39.062,-44.434,-34.180,-64.453,0.000
1728626170.953,-32.227,-43.457,-25.879,-61.523,0.000
1728626170.956,-39.551,-22.949,-13.184,-25.879,0.000
1728626170.960,-38.574,-23.926,-21.973,-12.695,0.000
1728626170.964,-41.992,-42.480,-31.738,-43.457,0.000
1728626170.968,-24.414,-28.320,-23.438,-47.852,0.000
1728626170.972,-20.020,-27.832,-23.438,-35.156,0.000
1728626170.976,-36.621,-39.551,-32.715,-14.648,0.000
1728626170.980,-38.086,-27.832,-34.668,-5.859,0.000
1728626170.984,-31.250,-21.973,-34.668,-41.504,0.000
1728626170.988,-14.648,-21.973,-33.203,-48.340,0.000
1728626170.992,-22.461,-21.484,-28.320,-33.203,0.000
1728626170.996,-41.016,-27.344,-30.273,-11.719,0.000
1728626171.000,-42.969,-29.785,-32.227,-0.488,0.000
1728626171.003,-43.945,-32.715,-32.227,-36.133,0.000
1728626171.007,-23.926,-43.945,-38.574,-51.270,0.000
1728626171.011,-32.715,-44.434,-35.156,-56.152,0.000
1728626171.015,-62.500,-40.527,-26.367,-41.992,0.000
1728626171.019,-43.457,-35.156,-19.043,-0.488,0.000
1728626171.023,-40.527,-34.668,-21.484,-19.531,0.000
1728626171.027,-37.109,-38.086,-23.438,-53.711,0.000
1728626171.031,-24.414,-35.645,-22.461,-48.828,0.000
1728626171.035,-49.316,-40.527,-27.344,-26.855,0.000
1728626171.039,-53.223,-48.828,-27.344,-4.395,0.000
1728626171.043,-50.781,-47.363,-24.414,-28.320,0.000
1728626171.047,-47.363,-51.758,-26.367,-64.941,0.000
1728626171.050,-31.738,-51.758,-30.762,-62.988,0.000
1728626171.054,-42.969,-42.480,-27.832,-42.969,0.000
1728626171.058,-47.852,-30.273,-30.273,-22.949,0.000
1728626171.062,-41.504,-26.367,-34.180,-33.691,0.000
1728626171.066,-30.273,-26.855,-32.227,-67.383,0.000
1728626171.070,0.000,-25.879,-30.273,-66.895,0.000
1728626171.074,0.000,-25.391,-37.109,-54.688,0.000
1728626171.078,0.000,-27.832,-35.645,-28.320,0.000
1728626171.082,0.000,-25.879,-29.297,-22.949,0.000
1728626171.086,0.000,-17.578,-30.273,-48.828,0.000
1728626171.089,0.000,-14.648,-26.855,-59.570,0.000
1728626171.093,0.000,-30.762,-30.273,-61.035,0.000
1728626171.097,0.000,-51.270,-40.527,-31.250,0.000
1728626171.101,0.000,-36.133,-43.457,-19.043,0.000
1728626171.105,0.000,-20.020,-42.480,-51.270,0.000
1728626171.109,0.000,-23.926,-43.457,-57.129,0.000
1728626171.113,0.000,-22.461,-41.016,-43.945,0.000
1728626171.117,-19.531,-14.160,-29.297,-4.883,0.000
1728626171.121,-19.043,-22.461,-24.902,15.625,0.000
1728626171.124,-27.344,-28.320,-25.391,-25.391,0.000
1728626171.128,-19.531,-28.809,-26.855,-45.898,0.000
1728626171.132,-30.273,-28.809,-34.668,-36.133,0.000
1728626171.136,-33.203,-18.066,-35.156,-5.371,0.000
1728626171.140,-7.324,-12.695,-26.367,18.555,0.000
1728626171.144,-10.742,-19.531,-27.344,-6.836,0.000
1728626171.148,-23.438,-17.090,-30.762,-44.922,0.000
1728626171.152,-26.367,-22.949,-32.715,-42.480,0.000
1728626171.156,-24.902,-30.273,-34.180,-7.324,0.000
1728626171.160,-23.926,-27.832,-33.691,3.418,0.000
1728626171.163,-36.621,-31.738,-29.785,-35.645,0.000
1728626171.167,-26.367,-43.457,-24.414,-55.664,0.000
1728626171.171,-28.320,-41.016,-24.902,-47.363,0.000
1728626171.175,-45.898,-31.250,-24.902,-33.203,0.000
1728626171.179,-42.480,-36.621,-24.414,-9.277,0.000
1728626171.183,-41.016,-48.340,-30.762,-28.809,0.000
1728626171.187,-26.367,-42.969,-27.832,-63.477,0.000
1728626171.191,-22.461,-38.086,-19.531,-56.152,0.000
1728626171.194,-39.062,-38.086,-25.879,-36.133,0.000
1728626171.198,-27.344,-43.945,-27.832,-12.207,0.000
1728626171.202,-32.715,-52.734,-31.738,-35.645,0.000
1728626171.206,-28.809,-39.062,-36.133,-69.336,0.000
1728626171.210,-7.812,-26.367,-31.250,-58.105,0.000
1728626171.214,-36.133,-33.691,-34.668,-38.086,0.000
1728626171.218,-45.410,-41.504,-42.969,-7.324,0.000
1728626171.221,-40.527,-43.945,-33.691,-25.391,0.000
1728626171.225,-38.574,-41.504,-22.461,-68.359,0.000
1728626171.229,-25.391,-44.922,-20.996,-59.082,0.000
1728626171.233,-38.574,-47.852,-24.414,-50.781,0.000
1728626171.237,-33.203,-35.156,-21.973,-31.250,0.000
1728626171.241,-21.484,-33.203,-23.438,-19.043,0.000
1728626171.245,-19.043,-32.715,-30.762,-47.852,0.000
1728626171.249,-18.555,-30.273,-31.250,-53.711,0.000
1728626171.253,-42.969,-32.715,-28.809,-38.086,0.000
1728626171.257,-46.875,-41.016,-32.227,-10.254,0.000
1728626171.261,-38.574,-37.598,-37.109,-11.230,0.000
1728626171.265,-38.574,-28.320,-34.668,-45.410,0.000
1728626171.269,-29.297,-31.250,-36.621,-53.223,0.000
1728626171.273,-33.691,-38.086,-40.527,-38.574,0.000
1728626171.277,-27.832,-33.691,-37.598,0.488,0.000
1728626171.280,-23.926,-21.484,-22.949,17.578,0.000
1728626171.284,-32.227,-25.879,-24.902,-30.762,0.000
1728626171.288,-17.578,-28.320,-36.621,-48.828,0.000
1728626171.292,-24.414,-34.668,-35.156,-35.156,0.000
1728626171.296,-43.945,-41.992,-28.809,-20.508,0.000
1728626171.300,-41.504,-29.785,-22.949,-3.906,0.000
1728626171.304,-43.945,-34.668,-29.785,-40.527,0.000
1728626171.308,-36.133,-46.875,-34.180,-60.547,0.000
1728626171.312,-44.434,-42.969,-39.062,-56.152,0.000
1728626171.316,-43.457,-32.227,-31.250,-32.227,0.000
1728626171.320,-20.508,-30.273,-19.531,-5.371,0.000
1728626171.324,-33.203,-40.039,-23.438,-36.621,0.000
1728626171.328,-28.809,-37.109,-25.391,-63.477,0.000
1728626171.331,-34.668,-36.621,-21.484,-55.176,0.000
1728626171.335,-45.410,-40.039,-20.020,-17.578,0.000
1728626171.339,-44.922,-43.945,-23.926,4.883,0.000
1728626171.343,-62.012,-43.945,-27.832,-49.805,0.000
1728626171.347,-41.992,-36.621,-32.227,-76.660,0.000
1728626171.351,-33.691,-41.016,-26.855,-63.965,0.000
1728626171.355,-48.828,-39.062,-21.484,-45.898,0.000
1728626171.359,-35.156,-20.508,-23.438,-12.207,0.000
1728626171.363,-35.645,-20.996,-24.414,-26.367,0.000
1728626171.367,-36.133,-31.250,-22.461,-51.758,0.000
1728626171.371,-36.133,-32.227,-32.227,-46.875,0.000
1728626171.375,-42.969,-33.203,-33.203,-44.922,0.000
1728626171.379,-27.344,-26.367,-25.879,-20.508,0.000
1728626171.382,-25.879,-28.320,-35.645,-26.367,0.000
1728626171.386,-31.250,-35.156,-46.387,-66.895,0.000
1728626171.390,-27.344,-29.297,-45.410,-62.012,0.000
1728626171.394,-38.574,-20.020,-41.992,-44.434,0.000
1728626171.398,-37.109,-23.438,-43.945,-19.043,0.000
1728626171.402,-41.992,-20.508,-39.062,-17.578,0.000
1728626171.406,-41.016,-18.555,-33.691,-50.293,0.000
1728626171.410,-16.602,-18.555,-31.738,-51.758,0.000
1728626171.414,-38.086,-17.578,-32.715,-33.203,0.000
1728626171.418,-50.781,-19.531,-32.227,-13.672,0.000
1728626171.422,-45.898,-23.926,-33.691,-18.066,0.000
1728626171.425,-40.039,-19.531,-29.297,-36.621,0.000
1728626171.429,-16.113,-15.137,-29.297,-37.598,0.000
1728626171.433,-34.180,-20.508,-38.086,-46.387,0.000
1728626171.437,-34.180,-20.508,-29.297,-4.395,0.000
1728626171.441,-18.555,-20.996,-22.949,11.230,0.000
1728626171.445,-32.715,-20.508,-24.414,-38.086,0.000
1728626171.449,-25.391,-19.043,-29.297,-52.246,0.000
1728626171.453,-39.551,-30.273,-39.551,-50.293,0.000
1728626171.457,-51.270,-32.715,-40.527,-25.879,0.000
1728626171.461,-39.062,-24.414,-40.527,-12.695,0.000
1728626171.464,-47.363,-29.297,-41.504,-49.316,0.000
1728626171.468,-37.598,-33.203,-41.016,-59.082,0.000
1728626171.472,-36.621,-37.598,-40.527,-47.852,0.000
1728626171.476,-52.734,-44.922,-28.320,-39.551,0.000
1728626171.480,-50.781,-38.574,-30.762,-20.508,0.000
1728626171.484,-50.781,-31.738,-35.645,-26.367,0.000
1728626171.488,-42.480,-41.992,-36.133,-49.316,0.000
1728626171.492,-39.062,-41.504,-36.621,-57.129,0.000
1728626171.496,-49.316,-36.133,-31.738,-28.809,0.000
1728626171.499,-49.805,-37.598,-34.180,-14.648,0.000
1728626171.503,-53.711,-38.574,-36.133,-47.363,0.000
1728626171.507,-37.598,-38.574,-40.039,-69.824,0.000
1728626171.511,-30.273,-41.992,-43.945,-70.801,0.000
1728626171.515,-41.016,-39.062,-31.250,-43.945,0.000
1728626171.519,-41.992,-32.715,-23.926,-6.836,0.000
1728626171.523,-57.129,-32.227,-35.156,-34.180,0.000
1728626171.527,-52.246,-42.480,-42.969,-64.453,0.000
1728626171.531,-40.527,-48.828,-36.621,-53.711,0.000
1728626171.535,-53.223,-45.410,-32.715,-42.969,0.000
1728626171.538,-48.340,-32.715,-35.645,-26.855,0.000
1728626171.542,-41.016,-36.133,-34.668,-31.250,0.000
1728626171.546,-24.414,-42.969,-30.762,-62.988,0.000
1728626171.550,-21.973,-33.691,-31.250,-61.035,0.000
1728626171.554,-42.969,-26.367,-26.367,-35.645,0.000
1728626171.558,-35.645,-25.391,-23.926,-10.254,0.000
1728626171.562,-27.832,-24.902,-32.715,-16.602,0.000
1728626171.566,-37.598,-32.715,-28.809,-53.223,0.000
1728626171.570,-29.297,-23.438,-18.066,-62.500,0.000
1728626171.573,-27.832,-11.719,-15.625,-30.273,0.000
1728626171.577,-20.996,-22.949,-8.789,5.859,0.000
1728626171.581,-23.438,-40.527,-10.742,-8.301,0.000
1728626171.585,-37.598,-38.574,-21.484,-50.781,0.000
1728626171.589,-26.855,-34.180,-31.738,-60.547,0.000
1728626171.593,-42.969,-39.062,-27.344,-54.199,0.000
1728626171.597,-49.805,-34.668,-10.742,-24.902,0.000
1728626171.600,-34.668,-31.250,-4.395,-14.160,0.000
1728626171.604,-33.203,-37.109,-13.672,-49.805,0.000
1728626171.608,-18.555,-43.457,-23.926,-61.523,0.000
1728626171.612,-45.898,-41.504,-21.973,-53.711,0.000
1728626171.616,-66.406,-38.574,-17.578,-20.020,0.000
1728626171.620,-51.758,-41.992,-16.113,-3.418,0.000
1728626171.624,-50.781,-43.945,-26.367,-52.734,0.000
1728626171.628,-41.504,-42.480,-34.668,-73.730,0.000
1728626171.632,-42.480,-39.551,-27.344,-57.129,0.000
1728626171.636,-49.805,-30.762,-23.926,-35.156,0.000
1728626171.640,-49.316,-29.785,-27.832,-18.066,0.000
1728626171.644,-54.688,-32.715,-35.645,-48.340,0.000
1728626171.648,-43.457,-35.156,-33.691,-74.219,0.000
1728626171.652,-39.062,-46.387,-30.762,-58.594,0.000
1728626171.656,-59.570,-40.527,-25.879,-28.320,0.000
1728626171.659,-62.500,-30.273,-31.250,-20.020,0.000
1728626171.663,-51.758,-45.410,-45.898,-50.781,0.000
1728626171.667,-29.785,-55.176,-52.246,-67.871,0.000
1728626171.671,-30.762,-38.574,-45.410,-54.199,0.000
1728626171.675,-46.875,-22.461,-29.785,-24.414,0.000
1728626171.679,-35.156,-27.832,-22.949,-0.977,0.000
1728626171.683,-32.715,-38.574,-36.133,-25.879,0.000
1728626171.687,-28.320,-36.133,-36.621,-57.617,0.000
1728626171.691,-25.391,-28.809,-29.785,-56.152,0.000
1728626171.695,-34.180,-31.250,-38.574,-33.691,0.000
1728626171.699,-26.855,-24.414,-42.480,5.371,0.000
1728626171.703,-37.598,-20.508,-33.691,-2.930,0.000
1728626171.707,-33.691,-24.902,-25.879,-36.621,0.000
1728626171.710,-20.508,-30.273,-32.227,-40.039,0.000
1728626171.714,-36.133,-27.832,-34.668,-25.391,0.000
1728626171.718,-35.156,-19.531,-21.973,-0.977,0.000
1728626171.722,-33.203,-25.391,-29.297,-18.555,0.000
1728626171.726,-27.344,-36.133,-41.504,-59.082,0.000
1728626171.730,-20.020,-32.227,-38.086,-62.988,0.000
1728626171.734,-35.156,-28.320,-35.645,-46.387,0.000
1728626171.738,-40.527,-29.297,-40.039,-15.625,0.000
1728626171.742,-34.668,-23.926,-39.551,-11.230,0.000
1728626171.746,-38.574,-29.785,-38.574,-41.016,0.000
1728626171.750,-45.898,-38.574,-43.945,-49.316,0.000
1728626171.754,-63.965,-41.992,-47.852,-44.434,0.000
1728626171.758,-48.828,-41.992,-45.410,-15.625,0.000
1728626171.761,-37.109,-30.273,-36.621,-13.184,0.000
1728626171.765,-52.734,-29.785,-34.668,-58.105,0.000
1728626171.769,-44.922,-45.898,-32.227,-73.730,0.000
1728626171.773,-54.688,-53.223,-33.203,-59.570,0.000
1728626171.777,-59.570,-48.340,-34.668,-29.297,0.000
1728626171.781,-39.062,-44.434,-32.715,-12.695,0.000
1728626171.785,-29.785,-41.992,-31.738,-44.434,0.000
1728626171.789,-16.602,-38.086,-33.203,-67.383,0.000
1728626171.793,-38.086,-40.527,-36.621,-52.734,0.000
1728626171.797,-47.363,-34.668,-35.645,-31.738,0.000
1728626171.801,-41.504,-30.762,-36.133,-21.484,0.000
1728626171.804,-44.922,-35.645,-31.738,-49.316,0.000
1728626171.808,-34.668,-26.855,-28.809,-76.660,0.000
1728626171.812,-33.691,-31.738,-33.691,-65.430,0.000
1728626171.816,-48.828,-49.805,-37.598,-28.809,0.000
1728626171.820,-37.109,-41.016,-30.762,-4.395,0.000
1728626171.824,-29.785,-27.832,-35.156,-26.855,0.000
1728626171.828,-33.203,-23.438,-38.574,-38.086,0.000
1728626171.832,-41.016,-29.785,-32.227,-37.109,0.000
1728626171.836,-63.477,-40.039,-38.086,-27.832,0.000
1728626171.840,-55.664,-40.527,-47.363,-7.812,0.000
1728626171.843,-51.758,-41.992,-46.875,-32.227,0.000
1728626171.847,-39.062,-43.945,-44.434,-44.434,0.000
1728626171.851,-34.180,-40.039,-39.062,-44.434,0.000
1728626171.855,-47.852,-32.227,-37.109,-39.062,0.000
1728626171.859,-24.902,-32.715,-37.109,-10.254,0.000
1728626171.863,-18.066,-38.574,-35.645,-27.832,0.000
1728626171.867,-23.926,-33.203,-34.180,-52.246,0.000
1728626171.871,-28.809,-30.762,-29.785,-46.387,0.000
1728626171.875,-41.016,-27.832,-24.414,-20.020,0.000
1728626171.878,-24.414,-23.926,-19.531,15.625,0.000
1728626171.882,-31.250,-36.133,-23.438,-0.488,0.000
1728626171.886,-40.039,-44.922,-37.109,-47.852,0.000
1728626171.890,-12.207,-42.480,-32.715,-48.340,0.000
1728626171.894,-24.414,-36.621,-26.367,-21.484,0.000
1728626171.898,-45.898,-27.832,-27.344,0.977,0.000
1728626171.902,-40.039,-30.762,-26.855,-11.719,0.000
1728626171.906,-29.785,-37.109,-22.949,-44.434,0.000
1728626171.910,-16.113,-34.668,-24.414,-51.270,0.000
1728626171.913,-25.879,-46.387,-33.203,-44.434,0.000
1728626171.917,-32.715,-48.340,-35.645,-11.719,0.000
1728626171.921,-13.672,-35.645,-20.996,14.648,0.000
1728626171.925,-18.555,-41.992,-30.273,-20.508,0.000
1728626171.929,-25.879,-49.316,-50.781,-48.828,0.000
1728626171.933,1.465,-19.531,-34.668,-5.859,0.000
1728626171.937,25.879,-3.906,-29.297,41.504,0.000
1728626171.941,26.367,5.859,0.488,42.480,0.000
1728626171.945,-9.766,-12.695,0.488,-18.555,0.000
1728626171.949,-17.090,-57.617,-69.824,-62.012,0.000
1728626171.952,-17.578,-49.805,-40.527,-50.781,0.000
1728626171.956,22.461,-14.648,2.930,34.180,0.000
1728626171.960,67.383,-19.043,-9.766,87.402,0.000
1728626171.964,-3.906,-54.199,-15.625,-15.137,0.000
1728626171.968,12.695,-25.391,-15.137,-34.180,0.000
1728626171.972,182.129,32.227,67.871,138.672,0.000
1728626171.976,139.648,11.230,31.738,163.574,0.000
1728626171.979,-76.172,-74.707,-137.207,-20.508,0.000
1728626171.983,-86.914,-86.426,-160.645,-92.285,0.000
1728626171.987,119.629,18.555,39.062,79.102,0.000
1728626171.991,-27.344,-36.621,-35.645,-22.949,0.000
1728626171.995,-218.750,-102.051,-169.434,-156.250,0.000
1728626171.999,-125.000,-29.297,-103.027,-35.156,0.000
1728626172.003,-58.105,-17.090,-86.914,17.578,0.000
1728626172.007,25.391,11.230,-53.223,63.965,0.000
1728626172.011,74.707,25.879,-39.551,115.234,0.000
1728626172.015,111.328,44.434,-38.574,188.477,0.000
1728626172.019,133.301,57.129,-50.781,236.816,0.000
1728626172.023,70.312,35.156,-81.055,175.293,0.000
1728626172.027,56.641,48.828,-83.496,112.305,0.000
1728626172.031,77.637,62.988,-90.332,121.094,0.000
1728626172.035,51.270,51.270,-85.938,157.715,0.000
1728626172.038,45.898,42.969,-87.891,183.105,0.000
1728626172.042,74.219,29.785,-105.957,196.289,0.000
1728626172.046,103.516,20.996,-105.469,187.012,0.000
1728626172.050,105.957,81.055,-122.070,167.480,0.000
1728626172.054,79.102,137.695,-147.949,173.340,0.000
1728626172.058,60.547,109.863,-158.691,180.176,0.000
1728626172.062,38.086,71.289,-159.668,160.156,0.000
1728626172.066,40.527,27.832,-162.598,126.465,0.000
1728626172.070,53.711,4.883,-171.387,106.934,0.000
1728626172.074,28.320,12.207,-177.734,107.910,0.000
1728626172.078,10.742,10.254,-177.734,137.207,0.000
1728626172.082,12.695,16.602,-177.246,135.742,0.000
1728626172.086,23.438,28.809,-175.781,93.750,0.000
1728626172.089,39.551,34.668,-165.527,92.773,0.000
1728626172.093,17.090,45.410,-158.203,92.773,0.000
1728626172.097,-0.488,51.758,-155.273,115.234,0.000
1728626172.101,8.789,56.641,-152.344,127.930,0.000
1728626172.105,2.930,62.988,-150.391,72.266,0.000
1728626172.109,7.812,72.266,-145.996,46.875,0.000
1728626172.113,2.930,74.707,-142.578,53.711,0.000
1728626172.117,0.977,63.477,-132.812,74.219,0.000
1728626172.121,7.324,66.406,-117.676,82.031,0.000
1728626172.125,16.602,87.891,-106.445,60.547,0.000
1728626172.129,41.504,96.680,-100.586,45.410,0.000
1728626172.133,35.645,92.285,-95.703,53.711,0.000
1728626172.136,15.137,92.773,-87.891,84.961,0.000
1728626172.140,31.738,100.098,-77.637,103.027,0.000
1728626172.144,36.133,95.215,-66.406,80.078,0.000
1728626172.148,45.898,79.590,-55.176,63.965,0.000
1728626172.152,53.223,72.754,-47.363,52.734,0.000
1728626172.156,32.227,66.406,-44.434,65.430,0.000
1728626172.160,34.180,59.570,-37.598,86.426,0.000
1728626172.164,37.598,55.176,-28.809,45.898,0.000
1728626172.168,50.293,49.316,-20.996,17.578,0.000
1728626172.172,52.246,39.062,-14.160,21.484,0.000
1728626172.176,31.250,40.039,-7.324,40.039,0.000
1728626172.179,44.434,51.758,-5.371,73.730,0.000
1728626172.183,34.180,41.992,-21.484,35.645,0.000
1728626172.187,27.344,22.949,-20.996,-8.301,0.000
1728626172.191,31.250,15.625,-12.695,-10.742,0.000
1728626172.195,10.254,20.508,-23.926,6.836,0.000
1728626172.199,20.508,31.250,-22.461,36.621,0.000
1728626172.203,21.973,10.254,-22.461,7.324,0.000
1728626172.207,27.344,-24.902,-23.926,-32.227,0.000
1728626172.211,28.809,-43.457,-22.461,-35.645,0.000
1728626172.215,-3.906,-52.246,-25.391,-28.809,0.000
1728626172.218,-1.465,-47.363,-31.250,1.465,0.000
1728626172.222,0.488,-63.477,-40.039,-8.301,0.000
1728626172.226,-26.855,-74.707,-48.828,-71.289,0.000
1728626172.230,-31.250,-67.871,-50.781,-90.820,0.000
1728626172.234,-44.922,-70.801,-42.969,-68.848,0.000
1728626172.238,-46.387,-78.613,-37.598,-42.480,0.000
1728626172.242,-35.645,-88.379,-37.598,-39.062,0.000
1728626172.246,-44.434,-91.797,-43.945,-67.871,0.000
1728626172.249,-41.016,-96.191,-52.246,-89.355,0.000
1728626172.253,-46.387,-90.332,-52.246,-83.008,0.000
1728626172.257,-43.945,-79.590,-52.246,-48.828,0.000
1728626172.261,-34.180,-77.637,-55.664,-42.480,0.000
1728626172.265,-36.621,-84.961,-56.641,-74.707,0.000
1728626172.269,-40.527,-89.844,-52.246,-79.102,0.000
1728626172.273,-42.969,-78.613,-37.109,-70.801,0.000
1728626172.277,-35.156,-73.730,-27.832,-49.316,0.000
1728626172.281,-35.645,-83.984,-34.180,-46.387,0.000
1728626172.285,-51.270,-89.844,-36.621,-83.496,0.000
1728626172.288,-41.504,-91.309,-39.062,-111.816,0.000
1728626172.292,-47.852,-86.914,-38.574,-102.539,0.000
1728626172.296,-51.270,-77.637,-29.785,-61.035,0.000
1728626172.300,-25.391,-62.500,-25.391,-31.250,0.000
1728626172.304,-25.391,-52.734,-23.926,-60.059,0.000
1728626172.308,-40.039,-76.660,-31.250,-104.004,0.000
1728626172.312,-58.594,-87.891,-36.621,-110.352,0.000
1728626172.316,-72.754,-73.242,-39.551,-82.520,0.000
1728626172.319,-58.594,-79.102,-43.457,-56.641,0.000
1728626172.323,-54.199,-92.285,-47.852,-83.984,0.000
1728626172.327,-45.410,-81.543,-33.691,-92.285,0.000
1728626172.331,-41.504,-78.125,-19.043,-68.848,0.000
1728626172.335,-65.918,-93.750,-26.855,-70.312,0.000
1728626172.339,-62.012,-91.797,-36.133,-61.523,0.000
1728626172.343,-55.664,-82.031,-39.551,-80.078,0.000
1728626172.346,-58.105,-77.148,-37.109,-104.980,0.000
1728626172.350,-60.547,-82.031,-34.668,-110.352,0.000
1728626172.354,-70.801,-97.656,-42.480,-93.262,0.000
1728626172.358,-55.176,-96.191,-44.922,-44.922,0.000
1728626172.362,-53.711,-84.473,-42.480,-57.129,0.000
1728626172.366,-52.246,-86.426,-42.969,-94.238,0.000
1728626172.370,-35.645,-87.402,-42.969,-84.473,0.000
1728626172.374,-53.711,-80.078,-37.109,-67.383,0.000
1728626172.378,-65.430,-79.102,-38.086,-44.434,0.000
1728626172.381,-58.594,-87.891,-48.340,-57.129,0.000
1728626172.385,-49.316,-97.656,-56.641,-88.379,0.000
1728626172.389,-40.527,-92.773,-44.922,-84.473,0.000
1728626172.393,-59.570,-81.543,-34.668,-81.055,0.000
1728626172.397,-64.453,-83.984,-49.316,-65.430,0.000
1728626172.401,-56.152,-94.238,-58.594,-62.012,0.000
1728626172.405,-56.152,-95.215,-49.805,-86.914,0.000
1728626172.409,-41.504,-78.613,-44.434,-95.703,0.000
1728626172.412,-42.969,-75.195,-53.711,-80.078,0.000
1728626172.416,-39.062,-81.055,-54.688,-37.598,0.000
1728626172.420,-40.039,-63.965,-46.387,-29.297,0.000
1728626172.424,-51.270,-69.824,-40.527,-69.336,0.000
1728626172.428,-34.180,-79.102,-32.227,-80.078,0.000
1728626172.432,-47.363,-71.777,-25.879,-68.848,0.000
1728626172.436,-64.941,-70.801,-27.344,-44.434,0.000
1728626172.440,-61.523,-73.730,-36.133,-34.180,0.000
1728626172.444,-59.570,-71.289,-40.039,-63.477,0.000
1728626172.448,-41.016,-66.406,-39.062,-77.148,0.000
1728626172.452,-57.129,-65.430,-33.691,-74.219,0.000
1728626172.456,-73.242,-57.617,-33.203,-47.852,0.000
1728626172.460,-59.570,-59.082,-38.574,-24.902,0.000
1728626172.464,-55.664,-62.988,-35.156,-55.664,0.000
1728626172.467,-56.641,-62.988,-32.227,-93.750,0.000
1728626172.471,-61.035,-64.941,-33.691,-99.609,0.000
1728626172.475,-71.289,-54.688,-34.668,-72.754,0.000
1728626172.479,-57.129,-44.434,-34.180,-47.852,0.000
1728626172.483,-50.781,-44.922,-35.645,-72.754,0.000
1728626172.487,-49.805,-50.781,-51.270,-107.422,0.000
1728626172.491,-49.316,-57.129,-64.941,-105.469,0.000
1728626172.495,-58.105,-56.641,-60.547,-65.918,0.000
1728626172.499,-52.734,-60.547,-62.012,-47.852,0.000
1728626172.503,-56.641,-60.059,-66.895,-78.613,0.000
1728626172.507,-52.246,-62.500,-52.246,-82.031,0.000
1728626172.511,-43.457,-67.383,-41.016,-88.379,0.000
1728626172.515,-62.500,-60.059,-46.875,-91.797,0.000
1728626172.518,-59.570,-64.941,-51.758,-62.988,0.000
1728626172.522,0.000,-71.777,-58.105,-80.566,0.000
1728626172.526,0.000,-60.059,-56.152,-97.168,0.000
1728626172.530,0.000,-61.035,-61.035,-90.820,0.000
1728626172.534,0.000,-64.453,-69.336,-84.473,0.000
1728626172.538,0.000,-61.035,-66.895,-53.711,0.000
1728626172.542,0.000,-68.848,-66.406,-62.988,0.000
1728626172.546,0.000,-62.500,-48.340,-91.797,0.000
1728626172.550,0.000,-61.523,-38.086,-84.473,0.000
1728626172.554,0.000,-70.312,-40.527,-58.594,0.000
1728626172.558,0.000,-56.152,-43.457,-29.297,0.000
1728626172.562,0.000,-52.246,-59.082,-37.598,0.000
1728626172.565,0.000,-61.035,-57.617,-67.871,0.000
1728626172.570,-42.480,-61.035,-42.969,-76.172,0.000
1728626172.574,-57.129,-56.641,-42.969,-76.660,0.000
1728626172.578,-52.734,-53.711,-40.527,-47.363,0.000
1728626172.582,-46.387,-65.918,-40.527,-38.086,0.000
1728626172.586,-62.988,-74.219,-40.039,-79.590,0.000
1728626172.590,-43.945,-74.707,-39.062,-97.656,0.000
1728626172.594,-35.645,-69.336,-39.062,-74.219,0.000
1728626172.598,-39.551,-65.918,-38.086,-21.973,0.000
1728626172.601,-43.457,-65.430,-46.875,-9.766,0.000
1728626172.605,-49.316,-58.594,-45.410,-47.363,0.000
1728626172.609,-40.527,-45.410,-30.273,-62.500,0.000
1728626172.613,-52.734,-32.227,-26.367,-67.383,0.000
1728626172.617,-59.570,-24.414,-30.273,-44.434,0.000
1728626172.621,-44.922,-30.762,-29.785,-20.508,0.000
1728626172.625,-56.641,-45.898,-43.945,-64.941,0.000
1728626172.629,-48.828,-51.758,-45.898,-88.867,0.000
1728626172.632,-48.340,-54.688,-40.039,-77.637,0.000
1728626172.636,-61.035,-47.363,-46.387,-51.758,0.000
1728626172.640,-49.316,-43.457,-45.898,-22.949,0.000
1728626172.644,-43.945,-46.387,-38.086,-48.340,0.000
1728626172.648,-26.367,-38.086,-32.715,-73.242,0.000
1728626172.652,-45.410,-41.992,-36.133,-69.336,0.000
1728626172.656,-74.707,-52.246,-44.434,-40.039,0.000
1728626172.660,-57.129,-50.293,-50.781,-14.648,0.000
1728626172.664,-56.152,-51.758,-53.711,-61.523,0.000
1728626172.667,-42.480,-55.664,-52.734,-89.844,0.000
1728626172.671,-44.434,-44.922,-50.293,-70.801,0.000
1728626172.675,-68.848,-42.480,-43.457,-53.711,0.000
1728626172.679,-47.363,-36.133,-35.645,-23.438,0.000
1728626172.683,-37.109,-33.203,-51.270,-49.316,0.000
1728626172.687,-53.223,-45.410,-62.500,-94.238,0.000
1728626172.691,-63.477,-63.965,-54.688,-103.027,0.000
1728626172.695,-74.707,-63.477,-54.688,-88.379,0.000
1728626172.699,-70.312,-50.293,-56.641,-46.875,0.000
1728626172.703,-77.637,-53.711,-59.570,-66.895,0.000
1728626172.706,-77.148,-55.664,-64.941,-104.004,0.000
1728626172.710,0.000,-57.129,-57.617,-89.355,0.000
1728626172.714,0.000,-62.500,-52.246,-69.824,0.000
1728626172.718,0.000,-62.012,-63.965,-41.504,0.000
1728626172.722,0.000,-59.082,-66.406,-49.805,0.000
1728626172.726,0.000,-58.594,-57.129,-81.055,0.000
1728626172.730,0.000,-56.641,-60.547,-80.566,0.000
1728626172.734,0.000,-50.293,-57.129,-61.035,0.000
1728626172.737,0.000,-43.945,-50.293,-23.926,0.000
1728626172.741,0.000,-41.016,-53.711,-26.855,0.000
1728626172.745,0.000,-49.316,-52.734,-67.383,0.000
1728626172.749,0.000,-53.711,-50.781,-82.520,0.000
1728626172.753,0.000,-50.293,-47.852,-67.383,0.000
1728626172.756,-57.617,-57.129,-43.945,-29.785,0.000
1728626172.760,-59.082,-69.336,-46.387,-33.203,0.000
1728626172.764,-64.941,-58.105,-51.270,-74.707,0.000
1728626172.768,-58.105,-42.480,-44.922,-88.867,0.000
1728626172.772,-62.988,-44.922,-41.504,-82.031,0.000
1728626172.776,-66.406,-53.711,-50.781,-45.410,0.000
1728626172.780,-49.805,-45.410,-49.316,-30.273,0.000
1728626172.784,-53.711,-41.016,-42.969,-66.895,0.000
1728626172.788,-53.711,-45.410,-46.387,-84.961,0.000
1728626172.792,-53.223,-55.664,-48.828,-76.172,0.000
1728626172.796,-56.641,-49.805,-41.016,-49.316,0.000
1728626172.799,-61.523,-43.945,-38.574,-20.020,0.000
1728626172.804,-67.383,-49.316,-53.711,-51.758,0.000
1728626172.808,-50.781,-51.758,-58.594,-86.914,0.000
1728626172.811,-53.711,-59.082,-56.152,-84.961,0.000
1728626172.815,-58.105,-53.711,-51.758,-52.246,0.000
1728626172.819,-45.410,-53.223,-54.199,-19.531,0.000
1728626172.823,-52.246,-58.105,-56.641,-44.922,0.000
1728626172.827,-48.828,-43.457,-47.363,-73.242,0.000
1728626172.831,-39.062,-39.551,-42.480,-68.359,0.000
1728626172.835,-33.691,-37.109,-40.039,-46.387,0.000
1728626172.839,-29.785,-31.250,-43.945,-20.996,0.000
1728626172.843,-54.688,-35.156,-50.781,-34.180,0.000
1728626172.847,-54.688,-45.898,-51.758,-69.824,0.000
1728626172.851,-41.992,-43.945,-45.898,-69.824,0.000
1728626172.855,-55.664,-41.504,-35.645,-52.246,0.000
1728626172.859,-52.246,-48.828,-33.203,-12.207,0.000
1728626172.862,-55.176,-57.129,-43.457,-20.996,0.000
1728626172.866,-45.410,-47.852,-49.316,-69.336,0.000
1728626172.870,-28.809,-46.875,-52.734,-78.613,0.000
1728626172.874,-41.016,-49.805,-51.270,-57.129,0.000
1728626172.878,-37.598,-24.414,-31.738,-6.348,0.000
1728626172.882,-32.227,-22.949,-27.832,-1.465,0.000
1728626172.886,-47.363,-43.945,-34.180,-55.176,0.000
1728626172.890,-46.875,-60.059,-30.273,-78.125,0.000
1728626172.894,-65.430,-57.617,-40.527,-56.152,0.000
1728626172.898,-71.289,-43.945,-41.992,-20.508,0.000
1728626172.902,-53.223,-37.109,-37.109,-34.180,0.000
1728626172.906,-50.781,-36.133,-38.086,-81.543,0.000
1728626172.909,-24.902,-34.668,-35.156,-82.031,0.000
1728626172.913,-40.039,-34.180,-34.180,-60.547,0.000
1728626172.917,-48.340,-33.203,-36.133,-23.438,0.000
1728626172.921,-27.344,-26.855,-31.738,-8.301,0.000
1728626172.925,-36.133,-32.227,-31.250,-45.898,0.000
1728626172.929,-33.203,-58.594,-36.621,-61.035,0.000
1728626172.933,-32.715,-61.523,-32.715,-55.664,0.000
1728626172.937,-44.434,-45.898,-28.809,-33.203,0.000
1728626172.941,-42.480,-46.875,-30.762,-10.254,0.000
1728626172.945,-43.945,-48.340,-29.297,-35.156,0.000
1728626172.949,-22.949,-40.039,-23.926,-49.805,0.000
1728626172.952,-27.344,-42.480,-32.227,-54.688,0.000
1728626172.956,-41.504,-45.898,-33.691,-34.180,0.000
1728626172.960,-23.926,-36.621,-24.902,-7.324,0.000
1728626172.964,-28.320,-34.668,-28.809,-35.645,0.000
1728626172.968,-15.625,-33.203,-31.738,-59.082,0.000
1728626172.972,-12.695,-42.969,-34.180,-58.105,0.000
1728626172.976,-44.434,-57.129,-37.109,-44.922,0.000
1728626172.980,-45.410,-50.293,-38.086,-20.020,0.000
1728626172.984,-53.711,-54.688,-35.645,-38.086,0.000
1728626172.988,-49.805,-45.898,-34.668,-65.918,0.000
1728626172.991,-34.180,-32.715,-38.086,-63.965,0.000
1728626172.995,-62.988,-48.828,-41.992,-54.688,0.000
1728626172.999,-74.219,-55.176,-48.828,-31.738,0.000
1728626173.003,-67.871,-48.828,-56.641,-54.688,0.000
1728626173.007,-48.340,-43.945,-43.945,-75.684,0.000
1728626173.011,-41.016,-53.223,-35.156,-69.824,0.000
1728626173.015,-61.035,-52.246,-39.062,-53.223,0.000
1728626173.019,-50.293,-45.898,-39.551,-15.625,0.000
1728626173.023,-59.082,-52.246,-51.270,-37.598,0.000
1728626173.026,-49.805,-50.781,-57.129,-68.359,0.000
1728626173.030,-26.367,-40.527,-49.805,-59.082,0.000
1728626173.034,-56.641,-49.316,-47.363,-52.246,0.000
1728626173.038,-61.523,-55.176,-51.758,-28.320,0.000
1728626173.042,-52.734,-43.457,-54.688,-23.438,0.000
1728626173.046,-50.781,-44.922,-52.734,-56.641,0.000
1728626173.050,-36.133,-48.340,-51.270,-63.965,0.000
1728626173.054,-44.922,-41.016,-58.105,-43.457,0.000
1728626173.057,-59.570,-46.387,-54.688,-9.766,0.000
1728626173.061,-54.688,-46.387,-46.875,-14.648,0.000
1728626173.065,-36.621,-37.598,-46.387,-59.082,0.000
1728626173.069,-26.367,-40.527,-53.711,-73.242,0.000
1728626173.073,-48.340,-39.551,-55.176,-61.523,0.000
1728626173.077,-44.434,-30.762,-40.527,-28.809,0.000
1728626173.081,-51.758,-37.598,-40.527,-25.391,0.000
1728626173.085,-57.129,-41.016,-41.016,-61.035,0.000
1728626173.088,-32.715,-27.832,-36.621,-68.359,0.000
1728626173.092,-49.805,-33.691,-40.527,-53.711,0.000
1728626173.096,-57.617,-52.246,-41.992,-25.391,0.000
1728626173.100,-47.852,-49.316,-30.762,-7.324,0.000
1728626173.104,-50.781,-41.992,-24.902,-38.574,0.000
1728626173.108,-36.133,-49.316,-32.715,-64.941,0.000
1728626173.112,-39.551,-49.805,-34.668,-58.105,0.000
1728626173.116,-41.504,-42.480,-31.738,-27.832,0.000
1728626173.120,-35.645,-40.039,-31.738,-15.137,0.000
1728626173.124,-53.223,-40.527,-30.273,-46.875,0.000
1728626173.128,-31.738,-34.668,-18.555,-58.594,0.000
1728626173.132,-22.461,-31.250,-17.578,-50.293,0.000
1728626173.136,-46.387,-36.621,-25.391,-22.461,0.000
1728626173.140,-37.598,-23.438,-22.461,-0.488,0.000
1728626173.144,-34.180,-17.578,-31.250,-31.738,0.000
1728626173.147,-13.184,-30.762,-41.016,-53.711,0.000
1728626173.151,-17.090,-40.039,-44.434,-67.871,0.000
1728626173.155,-43.945,-31.738,-34.668,-49.805,0.000
1728626173.159,-37.598,-27.832,-25.879,-13.672,0.000
1728626173.163,-41.992,-36.621,-30.273,-32.715,0.000
1728626173.167,-33.203,-34.180,-31.738,-54.688,0.000
1728626173.171,-25.879,-27.832,-27.344,-61.523,0.000
1728626173.175,-47.852,-30.273,-26.855,-56.641,0.000
1728626173.180,-40.527,-30.762,-39.551,-21.484,0.000
1728626173.184,-39.551,-41.016,-43.945,-25.391,0.000
1728626173.188,-34.180,-33.691,-34.668,-58.594,0.000
1728626173.191,-24.902,-22.461,-30.273,-57.129,0.000
1728626173.195,-58.105,-36.621,-39.551,-42.969,0.000
1728626173.199,-62.012,-41.992,-45.410,-32.227,0.000
1728626173.203,-42.969,-34.668,-36.133,-41.016,0.000
1728626173.207,-30.762,-22.949,-28.809,-62.500,0.000
1728626173.211,-21.973,-10.254,-29.297,-61.035,0.000
1728626173.215,-42.969,-18.066,-33.691,-44.434,0.000
1728626173.219,-53.223,-24.414,-31.250,-16.602,0.000
1728626173.223,-49.805,-26.367,-30.273,-7.812,0.000
1728626173.227,-48.340,-27.832,-41.992,-51.270,0.000
1728626173.231,-43.945,-30.273,-46.387,-72.754,0.000
1728626173.235,-61.035,-41.504,-41.504,-56.152,0.000
1728626173.238,-56.641,-33.691,-31.738,-18.555,0.000
1728626173.242,-45.898,-25.391,-32.715,-13.672,0.000
1728626173.246,-39.551,-34.668,-41.992,-44.922,0.000
1728626173.250,-30.762,-39.551,-39.062,-58.594,0.000
1728626173.254,-38.574,-37.109,-29.297,-55.176,0.000
1728626173.258,-35.645,-35.156,-31.250,-22.461,0.000
1728626173.262,-27.344,-38.086,-35.156,-6.836,0.000
1728626173.266,-31.738,-35.156,-25.391,-51.758,0.000
1728626173.270,-25.391,-33.203,-35.156,-73.242,0.000
1728626173.274,-29.297,-42.969,-49.805,-60.547,0.000
1728626173.278,-41.016,-41.992,-41.504,-29.297,0.000
1728626173.281,-36.133,-34.668,-37.109,-5.371,0.000
1728626173.285,-41.504,-37.598,-36.621,-36.621,0.000
1728626173.289,-19.531,-35.645,-30.762,-54.688,0.000
1728626173.293,-26.367,-43.945,-31.738,-50.781,0.000
1728626173.297,-56.641,-49.316,-38.086,-40.527,0.000
1728626173.301,-38.574,-34.180,-43.457,-19.531,0.000
1728626173.305,-31.250,-29.297,-43.457,-29.297,0.000
1728626173.309,-28.320,-27.344,-33.203,-48.340,0.000
1728626173.313,-32.227,-35.156,-34.668,-58.594,0.000
1728626173.317,-45.898,-37.109,-40.527,-39.551,0.000
1728626173.320,-30.762,-28.320,-41.504,-11.230,0.000
1728626173.324,-33.691,-28.320,-44.434,-34.180,0.000
1728626173.328,-38.574,-32.227,-43.945,-60.059,0.000
1728626173.332,-51.758,-40.527,-45.898,-68.359,0.000
1728626173.336,-68.848,-41.992,-46.387,-48.828,0.000
1728626173.340,-52.734,-30.762,-45.410,-14.648,0.000
1728626173.344,-46.387,-25.391,-44.434,-26.855,0.000
1728626173.348,-35.645,-32.715,-40.527,-55.664,0.000
1728626173.352,-34.668,-41.504,-43.457,-64.453,0.000
1728626173.356,-58.105,-38.086,-48.828,-52.734,0.000
1728626173.359,-53.223,-37.598,-52.734,-26.855,0.000
1728626173.363,-36.621,-30.762,-45.410,-28.809,0.000
1728626173.367,-32.227,-27.344,-36.621,-58.594,0.000
1728626173.371,-27.344,-31.250,-33.691,-71.289,0.000
1728626173.375,-56.152,-32.715,-36.133,-69.824,0.000
1728626173.379,-61.035,-24.414,-38.574,-39.551,0.000
1728626173.383,-41.504,-19.531,-36.621,-26.855,0.000
1728626173.387,-38.086,-30.762,-37.109,-58.594,0.000
1728626173.390,-33.691,-36.133,-37.109,-67.383,0.000
1728626173.394,-36.621,-26.855,-34.180,-43.945,0.000
1728626173.398,-29.297,-17.578,-36.621,-8.789,0.000
1728626173.402,-32.715,-25.879,-38.086,-9.277,0.000
1728626173.406,-44.922,-41.992,-36.621,-48.340,0.000
1728626173.410,-41.016,-44.922,-40.527,-56.152,0.000
1728626173.414,-45.898,-33.691,-39.551,-47.852,0.000
1728626173.418,-47.363,-20.508,-29.785,-27.344,0.000
1728626173.421,-32.227,-14.648,-19.531,-8.301,0.000
1728626173.425,-38.086,-26.855,-24.902,-37.109,0.000
1728626173.429,-36.621,-34.668,-33.203,-56.641,0.000
1728626173.433,-40.527,-33.203,-28.320,-45.898,0.000
1728626173.437,-33.203,-36.621,-14.648,0.000,0.000
1728626173.441,-18.555,-43.945,-16.602,-0.977,0.000
1728626173.445,-39.062,-36.133,-25.391,-56.152,0.000
1728626173.449,-39.062,-27.832,-33.203,-68.359,0.000
1728626173.453,-31.250,-26.367,-35.645,-51.758,0.000
1728626173.457,-44.434,-24.902,-37.109,-31.250,0.000
1728626173.460,-39.062,-21.973,-31.738,-10.254,0.000
1728626173.464,-34.668,-26.367,-41.992,-26.367,0.000
1728626173.468,-21.973,-22.949,-49.805,-58.594,0.000
1728626173.472,-19.531,-25.879,-34.668,-59.570,0.000
1728626173.476,-35.156,-31.738,-30.273,-40.039,0.000
1728626173.480,-36.621,-25.879,-36.133,-14.160,0.000
1728626173.484,-42.480,-29.785,-39.551,-22.949,0.000
1728626173.487,-30.762,-22.949,-36.621,-52.246,0.000
1728626173.491,-27.832,-22.949,-41.504,-63.965,0.000
1728626173.495,-41.504,-23.438,-35.156,-39.062,0.000
1728626173.499,-35.156,-15.625,-29.297,-0.488,0.000
1728626173.503,-40.039,-23.926,-35.645,-27.344,0.000
1728626173.507,-30.273,-28.320,-39.062,-62.988,0.000
1728626173.510,-19.531,-30.762,-37.598,-47.363,0.000
1728626173.514,-35.156,-30.273,-29.297,-18.555,0.000
1728626173.518,-31.250,-25.879,-32.227,1.953,0.000
1728626173.522,-35.156,-33.203,-43.457,-17.090,0.000
1728626173.526,-37.598,-35.156,-42.480,-51.270,0.000
1728626173.530,-36.621,-31.738,-42.969,-63.477,0.000
1728626173.534,-39.551,-28.320,-42.480,-48.828,0.000
1728626173.538,-25.391,-31.738,-43.457,-20.508,0.000
1728626173.542,-46.875,-33.691,-41.016,-24.414,0.000
1728626173.546,-49.316,-22.949,-32.715,-54.688,0.000
1728626173.550,-28.809,-22.461,-35.645,-59.082,0.000
1728626173.554,-53.223,-27.832,-37.598,-51.270,0.000
1728626173.558,-60.059,-23.926,-37.598,-19.043,0.000
1728626173.562,-46.875,-20.996,-40.039,-10.254,0.000
1728626173.565,-37.109,-30.762,-39.551,-41.992,0.000
1728626173.569,-25.879,-33.203,-40.039,-58.594,0.000
1728626173.573,-34.668,-32.227,-44.434,-61.523,0.000
1728626173.577,-51.758,-34.668,-38.574,-35.645,0.000
1728626173.581,-47.852,-20.508,-33.203,-14.648,0.000
1728626173.585,-36.133,-21.484,-36.621,-50.293,0.000
1728626173.589,-36.133,-36.621,-35.156,-72.754,0.000
1728626173.593,-39.062,-32.715,-34.668,-65.430,0.000
1728626173.597,-39.551,-27.344,-39.551,-30.273,0.000
1728626173.601,-40.039,-28.320,-37.109,-7.324,0.000
1728626173.605,-42.480,-33.691,-38.086,-47.363,0.000
1728626173.609,-20.508,-31.738,-41.016,-58.594,0.000
1728626173.613,-25.879,-30.273,-36.133,-47.363,0.000
1728626173.616,-43.457,-37.598,-32.715,-31.738,0.000
1728626173.620,-30.273,-20.508,-30.762,-3.418,0.000
1728626173.624,-43.457,-11.230,-23.438,-29.785,0.000
1728626173.628,-46.875,-24.902,-20.508,-59.570,0.000
1728626173.632,-45.898,-42.480,-25.391,-56.152,0.000
1728626173.636,-59.570,-44.922,-25.879,-47.363,0.000
1728626173.640,-30.762,-32.715,-26.367,-27.832,0.000
1728626173.644,-25.879,-34.180,-35.156,-41.992,0.000
1728626173.648,-39.062,-41.992,-39.551,-66.406,0.000
1728626173.652,-37.109,-37.598,-37.109,-66.895,0.000
1728626173.656,-46.387,-23.926,-22.461,-43.945,0.000
1728626173.660,-29.785,-20.996,-14.160,-0.488,0.000
1728626173.663,-26.855,-32.715,-29.297,-24.902,0.000
1728626173.667,-20.508,-37.109,-32.715,-62.988,0.000
1728626173.671,-17.090,-32.715,-33.203,-58.105,0.000
1728626173.675,-41.016,-41.992,-39.062,-30.273,0.000
1728626173.679,-39.551,-34.668,-37.109,4.395,0.000
1728626173.683,-28.809,-27.344,-33.691,-18.066,0.000
1728626173.687,-21.973,-25.391,-36.621,-49.316,0.000
1728626173.691,-26.367,-25.391,-33.203,-48.340,0.000
1728626173.695,-39.062,-30.273,-29.785,-25.879,0.000
1728626173.699,-38.086,-26.367,-28.809,11.230,0.000
1728626173.702,-43.457,-30.762,-33.691,-3.418,0.000
1728626173.706,-32.715,-35.645,-38.086,-49.316,0.000
1728626173.710,-24.414,-35.645,-39.551,-56.152,0.000
1728626173.714,-46.387,-39.551,-41.992,-41.016,0.000
1728626173.718,-39.062,-33.691,-39.551,-17.090,0.000
1728626173.722,-33.203,-31.738,-39.062,-15.625,0.000
1728626173.726,-35.156,-41.992,-37.598,-44.922,0.000
1728626173.730,-26.367,-41.504,-32.227,-61.523,0.000
1728626173.734,-47.363,-31.250,-32.227,-45.410,0.000
1728626173.738,-42.969,-23.926,-22.949,-3.418,0.000
1728626173.741,-30.273,-25.391,-19.531,-3.418,0.000
1728626173.745,-51.270,-29.297,-27.832,-51.270,0.000
1728626173.749,-37.598,-33.691,-27.832,-55.664,0.000
1728626173.753,-32.227,-36.621,-24.902,-32.715,0.000
1728626173.757,-50.781,-37.598,-34.180,-10.254,0.000
1728626173.761,-37.109,-41.016,-34.668,-6.348,0.000
1728626173.765,-21.484,-37.598,-34.668,-41.992,0.000
1728626173.769,-16.113,-35.156,-41.504,-47.363,0.000
1728626173.773,-31.250,-37.109,-34.668,-46.875,0.000
1728626173.777,-28.809,-39.062,-26.367,-25.879,0.000
1728626173.780,-29.785,-33.203,-28.320,-4.883,0.000
1728626173.784,-41.992,-28.320,-31.250,-37.598,0.000
1728626173.788,-31.250,-35.645,-24.414,-59.082,0.000
1728626173.792,-33.691,-47.363,-28.809,-54.688,0.000
1728626173.796,-44.434,-46.387,-38.086,-26.855,0.000
1728626173.800,-43.457,-34.668,-35.156,4.395,0.000
1728626173.804,-51.758,-34.180,-37.109,-29.785,0.000
1728626173.808,-29.785,-44.922,-41.016,-56.152,0.000
1728626173.811,-18.066,-44.922,-37.598,-40.039,0.000
1728626173.815,-30.273,-34.180,-30.273,-17.090,0.000
1728626173.819,-21.484,-21.484,-19.043,9.766,0.000
1728626173.823,-32.227,-26.367,-26.855,-11.230,0.000
1728626173.827,-33.691,-41.016,-39.062,-52.246,0.000
1728626173.831,-31.250,-41.504,-37.598,-66.406,0.000
1728626173.835,-49.316,-40.039,-23.438,-47.363,0.000
1728626173.839,-38.574,-41.016,-18.555,-4.883,0.000
1728626173.843,-33.203,-41.992,-28.320,-17.090,0.000
1728626173.847,-30.762,-50.781,-39.551,-55.176,0.000
1728626173.851,-17.578,-43.457,-32.715,-48.828,0.000
1728626173.855,-26.367,-37.598,-32.715,-17.090,0.000
1728626173.859,-15.625,-34.180,-26.367,14.648,0.000
1728626173.863,-24.902,-23.926,-20.996,-10.254,0.000
1728626173.867,-35.645,-28.809,-38.086,-55.664,0.000
1728626173.871,-34.668,-37.598,-43.457,-72.266,0.000
1728626173.874,-55.664,-45.898,-35.156,-67.383,0.000
1728626173.878,-33.691,-39.062,-36.621,-30.273,0.000
1728626173.882,-28.320,-35.156,-41.992,-26.367,0.000
1728626173.886,-43.945,-36.621,-37.109,-59.570,0.000
1728626173.890,-9.277,-30.273,-35.645,-59.082,0.000
1728626173.893,-17.090,-30.273,-38.574,-49.805,0.000
1728626173.897,-33.203,-34.180,-35.156,-29.785,0.000
1728626173.901,-32.715,-40.039,-31.738,-19.531,0.000
1728626173.905,-35.645,-35.645,-37.598,-38.574,0.000
1728626173.909,-24.414,-40.527,-50.781,-50.781,0.000
1728626173.913,-35.645,-43.457,-55.664,-60.059,0.000
1728626173.917,-37.109,-40.527,-48.828,-25.879,0.000
1728626173.921,-31.738,-31.738,-35.645,-4.395,0.000
1728626173.925,-41.992,-26.367,-33.691,-47.852,0.000
1728626173.929,-21.484,-26.855,-35.645,-55.176,0.000
1728626173.933,-16.602,-21.484,-33.691,-37.109,0.000
1728626173.937,-31.250,-23.926,-32.715,-13.184,0.000
1728626173.941,-22.461,-37.598,-37.598,-6.836,0.000
1728626173.945,-37.109,-41.504,-50.781,-49.805,0.000
1728626173.948,-35.645,-37.598,-49.805,-61.035,0.000
1728626173.952,-33.203,-32.227,-38.574,-54.199,0.000
1728626173.956,-51.270,-33.203,-34.668,-34.668,0.000
1728626173.960,-38.086,-32.715,-38.574,-3.418,0.000
1728626173.964,-36.133,-32.715,-45.898,-26.855,0.000
1728626173.968,-30.273,-35.156,-45.898,-62.500,0.000
1728626173.972,-23.438,-34.180,-39.551,-53.223,0.000
1728626173.976,0.000,-25.879,-37.109,-30.762,0.000
1728626173.980,0.000,-26.855,-48.340,-22.461,0.000
1728626173.984,0.000,-42.480,-53.223,-51.270,0.000
1728626173.988,0.000,-44.922,-43.945,-64.453,0.000
1728626173.992,0.000,-39.062,-35.645,-52.246,0.000
1728626173.996,0.000,-37.598,-40.039,-47.363,0.000
1728626173.999,0.000,-29.297,-35.645,-13.184,0.000
1728626174.003,0.000,-25.879,-32.227,-28.320,0.000
1728626174.007,0.000,-35.156,-42.969,-58.594,0.000
1728626174.011,0.000,-37.109,-46.875,-51.270,0.000
1728626174.015,0.000,-38.086,-46.875,-55.664,0.000
1728626174.019,0.000,-38.086,-48.340,-31.250,0.000
1728626174.023,-28.320,-26.367,-41.504,-24.414,0.000
1728626174.027,-25.391,-24.414,-31.738,-48.828,0.000
1728626174.031,-5.859,-31.738,-24.414,-51.270,0.000
1728626174.035,-30.273,-41.504,-29.785,-35.156,0.000
1728626174.039,-48.340,-39.062,-35.156,3.418,0.000
1728626174.043,-36.133,-30.273,-30.762,5.859,0.000
1728626174.046,-35.156,-28.809,-35.645,-36.621,0.000
1728626174.050,-36.621,-32.227,-42.480,-55.664,0.000
1728626174.054,-54.199,-40.039,-36.133,-42.969,0.000
1728626174.058,-52.246,-27.832,-26.855,-7.812,0.000
1728626174.062,-40.039,-15.625,-36.621,6.836,0.000
1728626174.066,-34.668,-20.020,-41.016,-30.273,0.000
1728626174.070,-18.555,-19.043,-28.809,-52.246,0.000
1728626174.074,-25.879,-16.602,-27.832,-41.992,0.000
1728626174.078,-21.973,-17.578,-32.715,-13.672,0.000
1728626174.082,-20.996,-31.738,-43.457,-8.301,0.000
1728626174.085,-39.551,-40.527,-47.852,-46.875,0.000
1728626174.089,-22.949,-32.227,-38.086,-52.734,0.000
1728626174.093,-31.250,-29.785,-37.598,-42.969,0.000
1728626174.097,-44.922,-37.109,-41.504,-26.367,0.000
1728626174.101,-39.062,-43.945,-34.668,1.953,0.000
1728626174.105,-35.156,-35.156,-33.691,-30.762,0.000
1728626174.109,-14.160,-28.320,-32.227,-60.547,0.000
1728626174.113,-26.367,-30.273,-23.438,-48.828,0.000
1728626174.117,-47.852,-32.715,-31.250,-25.879,0.000
1728626174.120,-38.086,-37.109,-33.691,-7.324,0.000
1728626174.124,-40.527,-41.504,-27.344,-26.367,0.000
1728626174.128,-26.367,-40.039,-23.438,-46.875,0.000
1728626174.132,-25.391,-39.062,-15.137,-45.898,0.000
1728626174.136,-61.035,-46.387,-18.555,-26.855,0.000
1728626174.140,-62.012,-58.594,-28.320,-8.301,0.000
1728626174.144,-48.828,-53.223,-33.203,-23.438,0.000
1728626174.148,-35.645,-30.762,-28.320,-50.293,0.000
1728626174.152,-28.320,-31.250,-22.461,-50.293,0.000
1728626174.156,-42.969,-35.156,-20.996,-28.809,0.000
1728626174.160,-34.180,-29.785,-21.973,3.418,0.000
1728626174.163,-42.969,-41.504,-40.527,-23.438,0.000
1728626174.167,-46.387,-44.922,-40.039,-67.383,0.000
1728626174.171,-34.668,-36.621,-36.133,-70.801,0.000
1728626174.175,-44.922,-35.156,-39.062,-43.457,0.000
1728626174.179,-38.574,-43.945,-29.785,-7.812,0.000
1728626174.183,-35.156,-49.316,-31.250,-11.719,0.000
1728626174.187,-32.715,-34.180,-45.898,-36.133,0.000
1728626174.191,-20.508,-32.227,-40.527,-54.199,0.000
1728626174.194,-42.480,-37.598,-37.109,-44.922,0.000
1728626174.198,-33.203,-27.832,-27.832,-4.395,0.000
1728626174.202,-26.855,-26.367,-26.367,-13.672,0.000
1728626174.206,-22.949,-30.273,-39.551,-46.875,0.000
1728626174.210,0.000,-31.250,-40.527,-49.316,0.000
1728626174.214,0.000,-33.691,-44.922,-36.133,0.000
1728626174.218,0.000,-35.156,-47.363,-8.301,0.000
1728626174.221,0.000,-22.461,-31.738,5.859,0.000
1728626174.225,0.000,-2.441,-32.715,-26.367,0.000
1728626174.229,0.000,-28.809,-43.945,-54.199,0.000
1728626174.233,0.000,-47.852,-28.809,-32.715,0.000
1728626174.237,0.000,-26.367,-23.926,-9.277,0.000
1728626174.241,0.000,-21.973,-30.762,-18.555,0.000
1728626174.245,0.000,-28.809,-25.391,-47.363,0.000
1728626174.249,0.000,-33.691,-22.461,-68.359,0.000
1728626174.253,0.000,-41.504,-25.391,-47.363,0.000
1728626174.256,-41.992,-35.645,-23.926,-1.465,0.000
1728626174.260,-24.902,-32.227,-21.973,-3.906,0.000
1728626174.264,-31.250,-31.738,-23.438,-45.898,0.000
1728626174.268,-27.832,-26.367,-26.855,-64.453,0.000
1728626174.272,-42.480,-33.691,-33.203,-62.988,0.000
1728626174.276,-59.570,-41.504,-29.297,-33.691,0.000
1728626174.280,-47.852,-39.551,-29.297,-7.812,0.000
1728626174.284,-43.945,-49.316,-39.062,-36.621,0.000
1728626174.288,-37.109,-52.246,-39.062,-61.035,0.000
1728626174.291,-43.945,-45.898,-39.062,-63.477,0.000
1728626174.295,-53.711,-42.969,-28.809,-39.551,0.000
1728626174.299,-37.598,-41.504,-12.207,-12.207,0.000
1728626174.303,-36.133,-41.016,-13.184,-30.762,0.000
1728626174.307,-38.086,-35.645,-14.160,-45.898,0.000
1728626174.311,-32.715,-28.809,-14.648,-47.852,0.000
1728626174.315,-40.527,-27.832,-24.902,-36.621,0.000
1728626174.319,-31.250,-22.949,-25.879,-1.953,0.000
1728626174.323,-30.762,-30.762,-20.996,-25.879,0.000
1728626174.327,-21.973,-41.016,-27.344,-61.035,0.000
1728626174.331,-22.949,-30.273,-30.273,-40.527,0.000
1728626174.335,-48.340,-30.762,-30.762,-28.320,0.000
1728626174.339,-41.016,-40.527,-34.668,-14.160,0.000
1728626174.343,-37.598,-31.250,-38.086,-24.414,0.000
1728626174.346,-32.227,-25.879,-42.969,-53.223,0.000
1728626174.351,-19.531,-40.527,-45.410,-67.871,0.000
1728626174.354,-44.922,-44.922,-39.551,-60.059,0.000
1728626174.358,-39.551,-29.297,-29.297,-12.207,0.000
1728626174.362,-20.020,-22.949,-22.949,-9.277,0.000
1728626174.366,-26.367,-22.949,-16.602,-43.457,0.000
1728626174.370,-23.926,-22.461,-22.949,-64.453,0.000
1728626174.374,-38.574,-19.531,-33.691,-42.480,0.000
1728626174.378,-38.086,-24.902,-31.738,-0.488,0.000
1728626174.382,-34.668,-32.715,-28.320,-9.277,0.000
1728626174.386,-56.641,-29.297,-32.715,-56.641,0.000
1728626174.390,-38.574,-28.320,-38.086,-74.219,0.000
1728626174.394,-36.621,-37.598,-37.109,-63.965,0.000
1728626174.398,-44.922,-40.527,-32.227,-35.156,0.000
1728626174.401,-37.598,-31.738,-31.250,-25.391,0.000
1728626174.405,-39.551,-23.926,-30.273,-55.176,0.000
1728626174.409,-28.809,-27.832,-25.391,-70.312,0.000
1728626174.413,-42.480,-44.922,-28.320,-62.012,0.000
1728626174.417,-59.082,-41.992,-32.715,-34.668,0.000
1728626174.421,-60.059,-32.227,-42.969,-28.320,0.000
1728626174.425,-72.266,-52.734,-55.176,-63.965,0.000
1728626174.429,-48.340,-60.059,-53.223,-66.895,0.000
1728626174.433,-42.480,-37.598,-37.109,-60.059,0.000
1728626174.437,-55.664,-35.156,-29.785,-41.016,0.000
1728626174.441,-48.828,-40.527,-35.645,-13.672,0.000
1728626174.444,-55.664,-43.457,-40.039,-42.969,0.000
1728626174.448,-48.340,-47.363,-34.668,-63.965,0.000
1728626174.452,-45.898,-41.504,-22.949,-53.223,0.000
1728626174.456,-51.758,-34.180,-19.531,-25.391,0.000
1728626174.460,-29.785,-31.250,-19.531,-0.488,0.000
1728626174.464,-47.852,-47.852,-30.273,-47.363,0.000
1728626174.468,-54.199,-44.922,-34.668,-85.449,0.000
1728626174.472,-43.457,-36.621,-30.273,-70.801,0.000
1728626174.476,-53.711,-36.621,-31.250,-39.551,0.000
1728626174.480,-38.574,-31.738,-41.016,-14.648,0.000
1728626174.483,-39.551,-29.785,-43.457,-35.156,0.000
1728626174.487,-39.551,-33.203,-38.086,-61.035,0.000
1728626174.491,-33.203,-33.203,-38.574,-60.059,0.000
1728626174.495,-47.852,-30.273,-33.691,-33.691,0.000
1728626174.499,-42.969,-29.297,-32.715,0.977,0.000
1728626174.503,-47.363,-26.367,-41.504,-13.184,0.000
1728626174.507,-50.293,-31.250,-42.480,-58.594,0.000
1728626174.511,-32.227,-42.969,-39.551,-69.336,0.000
1728626174.515,-47.363,-39.551,-38.574,-46.387,0.000
1728626174.518,-56.641,-39.062,-46.387,-4.395,0.000
1728626174.522,-55.176,-32.715,-57.617,-23.438,0.000
1728626174.526,-47.852,-26.367,-53.223,-61.035,0.000
1728626174.530,-33.691,-28.320,-37.598,-51.270,0.000
1728626174.534,-42.969,-33.691,-24.902,-49.805,0.000
1728626174.538,-47.852,-33.203,-20.996,-21.973,0.000
1728626174.542,-31.250,-25.391,-24.902,-19.043,0.000
1728626174.546,-33.691,-36.133,-37.109,-62.988,0.000
1728626174.550,-33.691,-49.316,-42.480,-69.824,0.000
1728626174.553,-43.457,-45.898,-44.434,-55.664,0.000
1728626174.557,-51.758,-40.527,-40.527,-26.367,0.000
1728626174.561,-44.922,-44.434,-33.691,-18.555,0.000
1728626174.565,-55.176,-46.875,-41.504,-55.176,0.000
1728626174.569,-47.852,-34.180,-43.457,-69.336,0.000
1728626174.573,-35.156,-29.297,-32.715,-42.969,0.000
1728626174.577,-43.457,-29.297,-27.832,-7.324,0.000
1728626174.581,-36.133,-31.738,-31.250,-5.859,0.000
1728626174.584,-36.133,-37.598,-35.156,-36.133,0.000
1728626174.588,-37.598,-45.898,-35.156,-50.293,0.000
1728626174.592,-42.969,-54.199,-35.156,-50.293,0.000
1728626174.596,-39.551,-45.898,-33.691,-29.785,0.000
1728626174.600,-24.414,-36.621,-30.273,-6.836,0.000
1728626174.604,-32.715,-38.574,-33.203,-28.809,0.000
1728626174.608,-19.043,-28.809,-35.156,-50.293,0.000
1728626174.612,-28.320,-20.996,-31.250,-43.457,0.000
1728626174.616,-45.898,-20.508,-29.297,-7.324,0.000
1728626174.620,-27.832,-16.602,-32.715,8.301,0.000
1728626174.623,-31.738,-28.320,-32.715,-27.344,0.000
1728626174.627,-21.484,-32.715,-36.133,-57.129,0.000
1728626174.632,-23.438,-30.762,-45.410,-66.895,0.000
1728626174.636,-43.945,-35.645,-48.828,-45.898,0.000
1728626174.640,-21.484,-23.438,-48.340,-7.324,0.000
1728626174.643,-17.090,-16.602,-37.598,-23.438,0.000
1728626174.647,-18.555,-19.043,-27.344,-47.852,0.000
1728626174.651,-26.367,-25.391,-31.738,-48.340,0.000
1728626174.655,-52.246,-24.414,-33.691,-30.273,0.000
1728626174.659,-41.504,-16.602,-30.273,0.488,0.000
1728626174.663,-32.715,-20.508,-33.203,-20.996,0.000
1728626174.667,-28.809,-28.809,-34.668,-59.082,0.000
1728626174.671,-20.508,-26.367,-28.809,-54.199,0.000
1728626174.675,-39.062,-33.203,-21.484,-35.645,0.000
1728626174.679,-46.387,-34.668,-24.902,-14.160,0.000
1728626174.683,-43.457,-20.996,-44.922,-28.809,0.000
1728626174.687,-45.410,-26.855,-41.016,-61.523,0.000
1728626174.691,-39.551,-34.180,-28.809,-61.523,0.000
1728626174.695,-40.039,-29.297,-32.227,-45.410,0.000
1728626174.698,-32.227,-31.738,-24.902,-8.301,0.000
1728626174.702,-27.832,-25.391,-19.043,1.465,0.000
1728626174.706,-33.203,-24.902,-30.273,-36.621,0.000
1728626174.710,-30.273,-45.898,-39.551,-56.641,0.000
1728626174.714,-43.457,-51.758,-33.691,-43.457,0.000
1728626174.718,-32.227,-28.809,-25.879,-20.508,0.000
1728626174.722,-30.273,-22.461,-24.902,-25.391,0.000
1728626174.726,-45.898,-33.691,-26.855,-46.387,0.000
1728626174.730,-30.273,-37.109,-32.715,-58.594,0.000
1728626174.734,-35.156,-30.273,-39.551,-65.918,0.000
1728626174.738,-46.387,-14.648,-34.180,-41.504,0.000
1728626174.742,-34.180,-20.020,-25.391,-21.484,0.000
1728626174.745,-33.203,-44.434,-24.902,-57.129,0.000
1728626174.749,-25.879,-37.598,-28.320,-70.801,0.000
1728626174.753,-29.297,-24.902,-23.438,-46.875,0.000
1728626174.757,-40.039,-36.133,-20.996,-14.160,0.000
1728626174.761,-51.270,-31.250,-31.738,0.977,0.000
1728626174.765,-50.293,-20.020,-35.645,-33.691,0.000
1728626174.769,-31.738,-31.738,-37.598,-60.547,0.000
1728626174.773,-38.086,-32.227,-30.273,-48.828,0.000
1728626174.777,-38.086,-18.555,-18.066,-13.672,0.000
1728626174.781,-24.414,-9.277,-24.414,3.418,0.000
1728626174.785,-33.203,-19.531,-26.855,-24.902,0.000
1728626174.789,-31.738,-30.273,-29.297,-59.082,0.000
1728626174.792,-33.203,-29.297,-34.180,-50.293,0.000
1728626174.796,-31.250,-20.996,-28.320,-22.461,0.000
1728626174.800,-22.949,-19.531,-31.250,-5.859,0.000
1728626174.804,-35.156,-29.785,-43.457,-28.809,0.000
1728626174.808,-31.738,-25.391,-36.621,-56.641,0.000
1728626174.812,-24.902,-22.461,-25.879,-56.152,0.000
1728626174.816,-48.828,-37.109,-29.785,-53.223,0.000
1728626174.820,-42.969,-38.574,-24.902,-13.672,0.000
1728626174.824,-32.227,-32.227,-20.508,-16.113,0.000
1728626174.828,-32.715,-44.922,-26.367,-64.453,0.000
1728626174.832,-34.668,-49.805,-32.227,-65.918,0.000
1728626174.835,-63.965,-43.457,-35.156,-45.410,0.000
1728626174.839,-52.246,-39.551,-26.855,-14.648,0.000
1728626174.843,-36.621,-32.715,-26.855,-13.672,0.000
1728626174.847,-33.203,-32.715,-31.250,-46.387,0.000
1728626174.851,-27.344,-41.016,-29.785,-54.199,0.000
1728626174.855,-43.945,-38.086,-30.762,-43.945,0.000
1728626174.859,-37.109,-17.578,-25.391,-12.207,0.000
1728626174.863,-31.738,-18.066,-17.578,-11.230,0.000
1728626174.866,-34.180,-33.203,-20.020,-31.738,0.000
1728626174.870,-26.855,-43.945,-38.086,-47.852,0.000
1728626174.874,-44.922,-41.992,-50.293,-47.852,0.000
1728626174.878,-44.434,-29.785,-33.203,-11.719,0.000
1728626174.882,-38.086,-26.367,-27.832,-6.836,0.000
1728626174.886,-50.293,-32.227,-37.109,-47.363,0.000
1728626174.890,-36.621,-27.344,-33.691,-58.594,0.000
1728626174.894,-43.945,-31.250,-35.645,-40.527,0.000
1728626174.898,-61.035,-41.992,-31.250,-22.949,0.000
1728626174.902,-54.199,-41.992,-26.855,-18.555,0.000
1728626174.906,-52.734,-44.922,-36.133,-52.246,0.000
1728626174.909,-41.992,-34.668,-41.992,-63.965,0.000
1728626174.913,-41.504,-32.715,-42.480,-55.176,0.000
1728626174.917,-37.109,-31.250,-30.762,-21.973,0.000
1728626174.921,-19.043,-25.879,-24.414,0.000,0.000
1728626174.925,-32.227,-29.297,-35.156,-32.715,0.000
1728626174.929,-32.715,-29.297,-37.598,-62.988,0.000
1728626174.933,-36.621,-29.785,-36.621,-68.359,0.000
1728626174.937,-47.363,-28.320,-41.016,-23.926,0.000
1728626174.940,-43.945,-30.273,-43.945,0.488,0.000
1728626174.944,-36.133,-34.668,-41.504,-41.504,0.000
1728626174.948,-7.812,-37.109,-43.945,-56.641,0.000
1728626174.952,-18.555,-41.016,-39.551,-42.969,0.000
1728626174.956,-59.082,-37.109,-39.551,-34.180,0.000
1728626174.960,-55.176,-39.551,-50.781,-17.090,0.000
1728626174.964,-45.410,-46.387,-57.129,-33.691,0.000
1728626174.968,-30.762,-40.039,-52.246,-56.152,0.000
1728626174.971,-36.133,-42.480,-41.016,-51.270,0.000
1728626174.975,-54.199,-38.086,-31.738,-30.762,0.000
1728626174.979,-32.715,-24.902,-27.832,-2.441,0.000
1728626174.983,-22.461,-33.203,-27.344,-13.672,0.000
1728626174.987,-22.949,-36.133,-31.738,-51.758,0.000
1728626174.991,-16.602,-25.391,-34.180,-62.012,0.000
1728626174.995,-29.785,-26.855,-30.762,-39.062,0.000
1728626174.999,-37.109,-34.180,-33.203,-8.301,0.000
1728626175.003,-43.457,-32.227,-44.434,-30.762,0.000
1728626175.006,-37.598,-38.086,-43.457,-65.918,0.000
1728626175.010,-23.438,-36.621,-22.949,-55.176,0.000
1728626175.014,-41.992,-29.785,-18.555,-45.410,0.000
1728626175.018,-43.457,-34.180,-37.598,-23.926,0.000
1728626175.022,-45.898,-40.039,-45.898,-25.391,0.000
1728626175.026,-38.574,-47.852,-44.434,-47.363,0.000
1728626175.030,-20.508,-47.363,-37.598,-52.734,0.000
1728626175.034,-34.668,-35.156,-23.926,-37.109,0.000
1728626175.037,-35.156,-26.855,-23.926,-5.371,0.000
1728626175.041,-29.297,-18.066,-28.320,-14.648,0.000
1728626175.045,-32.227,-19.531,-27.832,-54.199,0.000
1728626175.049,-31.738,-34.180,-34.180,-80.566,0.000
1728626175.053,-42.480,-41.504,-35.645,-70.312,0.000
1728626175.057,-41.992,-34.668,-30.273,-18.555,0.000
1728626175.061,-39.062,-34.180,-37.598,0.488,0.000
1728626175.065,-43.457,-38.574,-42.480,-50.293,0.000
1728626175.069,-30.762,-38.574,-44.922,-68.848,0.000
1728626175.073,-23.438,-41.504,-34.180,-36.621,0.000
1728626175.077,-27.344,-30.273,-21.973,-11.719,0.000
1728626175.081,-34.668,-20.020,-33.203,-6.348,0.000
1728626175.085,-51.758,-28.320,-39.062,-34.668,0.000
1728626175.089,-46.387,-30.762,-36.621,-58.594,0.000
1728626175.092,-53.223,-25.391,-35.645,-56.152,0.000
1728626175.096,-55.664,-25.879,-29.785,-23.926,0.000
1728626175.100,-44.434,-32.227,-23.926,-1.465,0.000
1728626175.104,-41.992,-39.551,-29.785,-40.527,0.000
1728626175.108,-23.926,-42.480,-30.762,-61.035,0.000
1728626175.112,-41.016,-41.992,-26.855,-40.527,0.000
1728626175.116,-55.664,-39.551,-20.020,-18.066,0.000
1728626175.120,-36.621,-36.621,-13.184,1.953,0.000
1728626175.124,-43.945,-43.457,-32.715,-25.391,0.000
1728626175.128,-30.273,-38.574,-33.203,-45.898,0.000
1728626175.132,-26.367,-33.691,-21.973,-38.574,0.000
1728626175.136,-58.594,-38.086,-32.227,-26.855,0.000
1728626175.140,-65.918,-39.062,-34.668,-14.648,0.000
1728626175.143,-54.688,-37.598,-34.180,-42.969,0.000
1728626175.147,-43.945,-32.715,-34.668,-66.895,0.000
1728626175.151,-39.551,-35.645,-31.250,-54.688,0.000
1728626175.155,-46.387,-33.691,-26.855,-26.855,0.000
1728626175.159,-45.898,-27.832,-23.926,4.395,0.000
1728626175.163,-54.199,-42.969,-29.785,-28.320,0.000
1728626175.167,-41.992,-52.734,-30.762,-64.941,0.000
1728626175.171,-34.668,-40.527,-29.297,-67.383,0.000
1728626175.175,-50.781,-37.109,-31.250,-51.758,0.000
1728626175.179,-42.480,-45.898,-26.855,-7.324,0.000
1728626175.183,-45.898,-39.062,-26.367,-17.578,0.000
1728626175.187,-33.691,-35.645,-29.297,-61.035,0.000
1728626175.190,-8.301,-28.809,-30.273,-61.523,0.000
1728626175.194,0.000,-24.414,-22.461,-43.945,0.000
1728626175.198,0.000,-28.320,-18.555,-0.977,0.000
1728626175.202,0.000,-30.273,-24.414,7.812,0.000
1728626175.206,0.000,-38.574,-25.391,-41.504,0.000
1728626175.210,0.000,-41.504,-25.879,-61.035,0.000
1728626175.214,0.000,-36.621,-35.645,-49.805,0.000
1728626175.218,0.000,-32.227,-32.715,-11.230,0.000
1728626175.222,0.000,-37.598,-25.391,4.395,0.000
1728626175.226,0.000,-39.551,-28.320,-38.574,0.000
1728626175.230,0.000,-28.320,-23.438,-48.828,0.000
1728626175.233,0.000,-30.762,-20.508,-39.062,0.000
1728626175.237,0.000,-27.344,-19.531,-24.414,0.000
1728626175.241,-32.227,-11.719,-18.555,-10.742,0.000
1728626175.245,-29.297,-17.090,-23.926,-36.133,0.000
1728626175.249,-24.902,-32.227,-35.645,-67.383,0.000
1728626175.253,-45.410,-42.969,-48.340,-61.035,0.000
1728626175.257,-49.316,-37.109,-45.410,-23.926,0.000
1728626175.261,-26.367,-33.203,-39.062,-15.625,0.000
1728626175.264,-29.297,-39.062,-39.062,-47.852,0.000
1728626175.268,-28.320,-39.062,-40.039,-55.176,0.000
1728626175.272,-41.992,-41.992,-34.668,-51.270,0.000
1728626175.276,-51.758,-37.598,-23.438,-28.809,0.000
1728626175.280,-37.109,-23.926,-18.066,-1.465,0.000
1728626175.284,-39.551,-29.297,-20.996,-29.785,0.000
1728626175.288,-32.227,-38.574,-26.855,-57.617,0.000
1728626175.292,-38.086,-43.945,-35.156,-64.453,0.000
1728626175.295,-47.852,-48.828,-38.086,-46.387,0.000
1728626175.299,-42.969,-45.898,-40.039,-8.301,0.000
1728626175.303,-42.969,-41.992,-45.898,-21.973,0.000
1728626175.307,-20.508,-38.086,-41.504,-53.223,0.000
1728626175.311,-24.414,-40.039,-41.992,-51.758,0.000
1728626175.315,-47.363,-41.504,-29.785,-24.902,0.000
1728626175.319,-28.320,-30.762,-15.137,12.207,0.000
1728626175.323,-25.879,-33.691,-26.855,-5.371,0.000
1728626175.327,-18.066,-34.180,-30.762,-41.016,0.000
1728626175.331,-13.184,-37.598,-29.297,-45.898,0.000
1728626175.334,-43.457,-41.016,-35.156,-45.410,0.000
1728626175.338,-34.668,-32.227,-22.461,-4.883,0.000
1728626175.342,-37.109,-49.316,-27.832,-9.277,0.000
1728626175.346,-25.391,-38.086,-25.879,-34.668,0.000
1728626175.350,-19.531,-34.668,-20.996,-37.598,0.000
1728626175.354,-54.199,-57.617,-53.223,-45.410,0.000
1728626175.358,-12.695,-5.859,-33.691,22.949,0.000
1728626175.362,-16.113,-6.836,-15.137,9.277,0.000
1728626175.366,-23.438,-31.738,-22.461,-44.434,0.000
1728626175.369,11.230,-20.020,-29.785,-26.855,0.000
1728626175.373,-20.996,-41.992,-24.902,-28.809,0.000
1728626175.377,-46.387,-73.242,-28.809,-24.902,0.000
1728626175.381,0.488,-28.320,-21.484,31.250,0.000
1728626175.385,16.113,-0.977,1.953,22.949,0.000
1728626175.389,-54.199,-59.082,-32.715,-86.426,0.000
1728626175.392,-30.762,-49.316,-31.738,-65.430,0.000
1728626175.396,-43.945,-26.855,-23.438,-14.648,0.000
1728626175.400,-80.566,-58.594,-60.059,-37.598,0.000
1728626175.404,80.078,17.090,-34.180,57.617,0.000
1728626175.408,171.875,66.406,21.973,106.445,0.000
1728626175.412,74.707,-33.691,36.621,44.922,0.000
1728626175.416,45.410,2.930,30.762,84.473,0.000
1728626175.420,67.871,13.184,6.836,107.910,0.000
1728626175.424,86.914,-45.410,27.344,86.914,0.000
1728626175.428,122.559,52.246,54.199,109.863,0.000
1728626175.432,95.215,71.289,-69.824,85.449,0.000
1728626175.436,101.562,69.824,-29.785,133.301,0.000
1728626175.440,273.926,134.766,39.551,306.641,0.000
1728626175.444,194.824,41.992,-58.105,208.984,0.000
1728626175.447,-1.465,-126.465,-18.555,-5.859,0.000
1728626175.451,-4.395,-96.191,9.277,21.484,0.000
1728626175.455,-120.117,-17.578,-85.938,-4.883,0.000
1728626175.459,-157.715,35.645,-83.496,-15.625,0.000
1728626175.463,-40.527,79.590,15.137,81.543,0.000
1728626175.467,-57.129,46.875,-21.484,57.129,0.000
1728626175.471,-44.434,105.469,-61.035,78.125,0.000
1728626175.475,9.766,172.363,-33.203,164.062,0.000
1728626175.479,10.254,170.410,-38.086,189.453,0.000
1728626175.483,-0.977,174.805,-83.496,150.879,0.000
1728626175.487,4.883,184.570,-113.770,145.508,0.000
1728626175.491,3.418,190.918,-130.859,163.086,0.000
1728626175.495,-18.555,200.684,-147.461,187.012,0.000
1728626175.499,-17.090,230.469,-160.156,219.238,0.000
1728626175.502,-8.789,231.934,-173.340,207.520,0.000
1728626175.506,-6.836,216.309,-180.176,185.059,0.000
1728626175.510,-0.977,236.816,-181.641,166.504,0.000
1728626175.514,-16.602,256.836,-186.035,163.574,0.000
1728626175.518,-1.953,250.977,-186.523,189.453,0.000
1728626175.522,0.977,227.051,-181.641,179.688,0.000
1728626175.526,-17.090,221.680,-170.410,152.832,0.000
1728626175.530,-7.812,235.840,-157.715,146.484,0.000
1728626175.534,-13.184,237.305,-145.020,152.344,0.000
1728626175.538,-9.766,225.586,-136.230,171.387,0.000
1728626175.542,-9.277,214.844,-129.395,161.133,0.000
1728626175.546,-12.695,226.074,-117.188,121.582,0.000
1728626175.549,-2.441,237.793,-110.352,107.422,0.000
1728626175.553,-20.508,222.656,-106.934,120.605,0.000
1728626175.557,-18.555,214.844,-92.285,139.648,0.000
1728626175.561,11.230,214.355,-86.914,133.301,0.000
1728626175.565,1.465,198.242,-79.102,93.750,0.000
1728626175.569,1.465,175.781,-54.199,64.941,0.000
1728626175.573,-3.906,167.969,-36.133,71.289,0.000
1728626175.577,2.441,173.340,-23.926,104.004,0.000
1728626175.581,15.625,162.598,-20.020,116.211,0.000
1728626175.585,12.207,150.391,-18.066,79.102,0.000
1728626175.589,47.852,151.367,0.000,62.988,0.000
1728626175.592,59.570,143.555,11.230,83.008,0.000
1728626175.596,53.223,138.672,18.066,120.117,0.000
1728626175.600,63.965,125.977,22.461,133.789,0.000
1728626175.604,66.406,109.863,25.879,85.938,0.000
1728626175.608,85.449,95.703,35.645,52.246,0.000
1728626175.612,87.891,69.336,31.250,63.477,0.000
1728626175.616,53.223,49.316,25.391,75.195,0.000
1728626175.620,53.223,32.227,20.996,89.844,0.000
1728626175.624,64.941,13.184,23.926,67.871,0.000
1728626175.627,76.172,1.465,36.621,34.180,0.000
1728626175.631,67.871,-18.066,32.227,30.762,0.000
1728626175.635,32.715,-51.270,17.090,42.480,0.000
1728626175.639,39.062,-67.871,15.137,54.688,0.000
1728626175.643,30.762,-77.148,17.090,23.438,0.000
1728626175.647,19.043,-81.543,17.578,-29.785,0.000
1728626175.651,29.785,-98.145,18.066,-40.527,0.000
1728626175.655,18.066,-115.723,15.625,-15.137,0.000
1728626175.659,0.488,-124.023,20.996,5.371,0.000
1728626175.662,-4.883,-118.164,19.531,-27.344,0.000
1728626175.666,25.391,-99.121,21.484,-46.875,0.000
1728626175.670,26.855,-114.258,11.719,-46.387,0.000
1728626175.674,-18.555,-140.625,-6.836,-54.199,0.000
1728626175.678,-16.113,-140.137,1.953,-21.484,0.000
1728626175.682,-4.395,-145.020,15.625,-15.137,0.000
1728626175.686,-3.906,-161.133,17.090,-42.969,0.000
1728626175.690,6.348,-154.785,4.883,-61.035,0.000
1728626175.694,-10.254,-139.160,7.324,-60.059,0.000
1728626175.698,-4.395,-128.906,8.301,-25.391,0.000
1728626175.701,6.348,-121.582,-3.906,-19.043,0.000
1728626175.705,-8.789,-109.375,7.324,-52.246,0.000
1728626175.709,-1.953,-106.934,12.207,-75.684,0.000
1728626175.713,-19.043,-130.371,-9.766,-76.172,0.000
1728626175.717,-26.855,-134.766,-15.137,-47.852,0.000
1728626175.721,-19.043,-125.488,-14.648,-44.434,0.000
1728626175.725,-20.508,-127.930,-11.230,-71.289,0.000
1728626175.729,-12.207,-131.836,0.000,-76.172,0.000
1728626175.732,-23.438,-133.301,-2.930,-63.965,0.000
1728626175.736,-48.340,-131.348,-4.395,-49.316,0.000
1728626175.740,-45.410,-128.906,-1.465,-48.340,0.000
1728626175.744,-21.484,-117.676,4.883,-71.289,0.000
1728626175.748,0.977,-114.258,1.465,-83.008,0.000
1728626175.752,-23.926,-125.000,-6.836,-73.730,0.000
1728626175.756,-35.645,-124.023,5.371,-37.598,0.000
1728626175.759,-28.320,-116.211,9.277,-21.484,0.000
1728626175.763,-41.504,-112.793,-3.906,-70.801,0.000
1728626175.767,-33.203,-115.234,-10.254,-95.703,0.000
1728626175.771,-33.203,-119.629,-12.695,-71.777,0.000
1728626175.775,-38.574,-120.605,-12.695,-43.457,0.000
1728626175.779,-19.043,-108.887,-4.883,-30.762,0.000
1728626175.783,-18.066,-93.750,0.488,-51.758,0.000
1728626175.787,-14.160,-89.355,-1.465,-81.543,0.000
1728626175.791,-26.367,-99.121,-6.836,-83.008,0.000
1728626175.795,-48.828,-98.633,-16.602,-69.336,0.000
1728626175.798,-46.875,-90.332,-18.555,-53.711,0.000
1728626175.803,-48.828,-89.355,-13.672,-69.824,0.000
1728626175.807,-36.621,-88.867,-8.789,-91.797,0.000
1728626175.811,-39.551,-92.773,-15.137,-103.027,0.000
1728626175.814,-51.758,-95.215,-23.926,-91.797,0.000
1728626175.818,-46.875,-97.168,-19.531,-48.340,0.000
1728626175.822,-50.781,-97.168,-13.184,-54.688,0.000
1728626175.826,-27.832,-83.984,-9.277,-78.125,0.000
1728626175.830,-21.973,-83.984,-15.625,-85.449,0.000
1728626175.834,-52.246,-92.773,-25.391,-76.172,0.000
1728626175.838,-42.969,-89.355,-29.297,-41.992,0.000
1728626175.842,-45.898,-80.566,-33.691,-60.547,0.000
1728626175.846,-54.199,-68.848,-36.621,-112.793,0.000
1728626175.850,-42.480,-50.293,-29.785,-111.816,0.000
1728626175.854,-52.246,-45.898,-20.996,-81.055,0.000
1728626175.858,-47.363,-42.969,-16.602,-52.246,0.000
1728626175.862,-53.223,-48.340,-24.902,-57.617,0.000
1728626175.866,-52.734,-58.594,-29.785,-97.168,0.000
1728626175.869,-38.086,-67.871,-20.508,-116.699,0.000
1728626175.873,-66.895,-77.148,-28.809,-95.703,0.000
1728626175.877,-74.707,-69.824,-32.715,-56.641,0.000
1728626175.881,-66.895,-69.824,-29.785,-58.105,0.000
1728626175.885,-69.336,-81.055,-31.738,-95.703,0.000
1728626175.889,-50.293,-72.754,-30.273,-104.980,0.000
1728626175.893,-50.781,-50.293,-33.203,-87.402,0.000
1728626175.897,0.000,-42.969,-29.297,-60.547,0.000
1728626175.901,0.000,-42.480,-29.297,-53.223,0.000
1728626175.905,0.000,-46.387,-37.109,-87.891,0.000
1728626175.909,0.000,-51.758,-37.109,-111.328,0.000
1728626175.913,0.000,-62.012,-34.668,-113.281,0.000
1728626175.916,0.000,-77.637,-37.598,-91.797,0.000
1728626175.920,0.000,-76.660,-44.922,-74.707,0.000
1728626175.924,0.000,-69.824,-52.246,-101.562,0.000
1728626175.928,0.000,-60.547,-44.922,-101.074,0.000
1728626175.932,0.000,-61.523,-41.504,-90.820,0.000
1728626175.936,0.000,-68.359,-44.922,-76.172,0.000
1728626175.940,0.000,-71.777,-46.387,-46.875,0.000
1728626175.944,-62.988,-72.754,-56.152,-71.289,0.000
1728626175.948,-60.059,-69.824,-52.734,-97.168,0.000
1728626175.952,-60.547,-69.336,-50.781,-95.703,0.000
1728626175.956,-66.895,-67.383,-50.781,-74.707,0.000
